Fennally et al cross sections at Hinteregger wavelengths.
     WVLN         O Ion        O2 Ion       O2 Abs       N2 Ion       N2 Abs  
     0.7500       0.0000       0.0000       0.0000       0.0000       0.0000
     1.2500       0.0000       0.0000       0.0000       0.0000       0.0000
     1.7500       0.0000       0.0000       0.0000       0.0000       0.0000
     2.2500       0.0000       0.0000       0.0000       0.0000       0.0000
     2.7500       0.0000       0.0000       0.0000       0.0000       0.0000
     3.2500       0.0000       0.0001       0.0001       0.0000       0.0000
     3.7500       0.0000       0.0001       0.0001       0.0000       0.0000
     4.2500       0.0000       0.0001       0.0001       0.0000       0.0000
     4.7500       0.0000       0.0001       0.0001       0.0000       0.0000
     5.2500       0.0000       0.0001       0.0001       0.0001       0.0001
     5.7500       0.0001       0.0001       0.0001       0.0001       0.0001
     6.2500       0.0001       0.0001       0.0001       0.0001       0.0001
     6.7500       0.0001       0.0002       0.0002       0.0001       0.0001
     7.2500       0.0001       0.0002       0.0002       0.0001       0.0001
     7.7500       0.0001       0.0002       0.0002       0.0002       0.0002
     8.2500       0.0001       0.0002       0.0002       0.0002       0.0002
     8.7500       0.0001       0.0003       0.0003       0.0002       0.0002
     9.2500       0.0002       0.0003       0.0003       0.0003       0.0003
     9.7500       0.0002       0.0004       0.0004       0.0004       0.0004
    10.2500       0.0002       0.0005       0.0005       0.0005       0.0005
    10.7500       0.0003       0.0005       0.0005       0.0006       0.0006
    11.2500       0.0003       0.0006       0.0006       0.0007       0.0007
    11.7500       0.0004       0.0007       0.0007       0.0009       0.0009
    12.2500       0.0004       0.0008       0.0008       0.0011       0.0011
    12.7500       0.0005       0.0010       0.0010       0.0013       0.0013
    13.2500       0.0006       0.0012       0.0012       0.0016       0.0016
    13.7500       0.0007       0.0013       0.0013       0.0020       0.0020
    14.2500       0.0008       0.0016       0.0016       0.0025       0.0025
    14.7500       0.0009       0.0018       0.0018       0.0030       0.0030
    15.2500       0.0011       0.0021       0.0021       0.0037       0.0037
    15.7500       0.0013       0.0025       0.0025       0.0046       0.0046
    16.2500       0.0015       0.0029       0.0029       0.0057       0.0057
    16.7500       0.0017       0.0034       0.0034       0.0070       0.0070
    17.2500       0.0020       0.0040       0.0040       0.0087       0.0087
    17.7500       0.0023       0.0046       0.0046       0.0107       0.0107
    18.6200       0.0030       0.0061       0.0061       0.0154       0.0154
    18.9700       0.0034       0.0068       0.0068       0.0178       0.0178
    21.6000       0.0077       0.0152       0.0152       0.0537       0.0537
    21.8000       0.0081       0.0162       0.0162       0.0584       0.0584
    22.1000       0.0089       0.0178       0.0178       0.0663       0.0663
    28.4700       0.0640       0.1270       0.1270       0.9590       0.9590
    28.7900       0.0660       0.1310       0.1310       0.9700       0.9700
    29.5200       0.0700       0.1390       0.1390       0.9950       0.9950
    30.0200       0.0730       0.1450       0.1450       1.0120       1.0120
    30.4300       0.0760       0.1500       0.1500       0.9090       0.9090
    33.7400       0.0960       0.1900       0.1900       0.0960       0.0960
    40.9500       0.1400       0.2750       0.2750       0.1500       0.1500
    43.7600       0.1570       0.3090       0.3090       0.1710       0.1710
    44.0200       0.1580       0.3120       0.3120       0.1730       0.1730
    44.1600       0.1590       0.3140       0.3140       0.1740       0.1740
    45.6600       0.1820       0.3410       0.3410       0.1880       0.1880
    46.4000       0.1830       0.3560       0.3560       0.1960       0.1960
    46.6700       0.1830       0.3620       0.3620       0.1990       0.1990
    47.8700       0.1840       0.3880       0.3880       0.2110       0.2110
    49.2200       0.1930       0.4170       0.4170       0.2250       0.2250
    50.5200       0.2050       0.4450       0.4450       0.2390       0.2390
    50.6900       0.2070       0.4490       0.4490       0.2410       0.2410
    52.3000       0.2250       0.4830       0.4830       0.2580       0.2580
    52.9100       0.2310       0.4980       0.4980       0.2660       0.2660
    54.1500       0.2450       0.5300       0.5300       0.2830       0.2830
    54.4200       0.2490       0.5370       0.5370       0.2870       0.2870
    55.0600       0.2580       0.5530       0.5530       0.2960       0.2960
    55.3400       0.2620       0.5600       0.5600       0.3000       0.3000
    56.0800       0.2720       0.5780       0.5780       0.3100       0.3100
    56.9200       0.2840       0.6000       0.6000       0.3220       0.3220
    57.3600       0.2900       0.6110       0.6110       0.3280       0.3280
    57.5600       0.2930       0.6160       0.6160       0.3310       0.3310
    57.8800       0.2970       0.6240       0.6240       0.3350       0.3350
    58.9600       0.3120       0.6510       0.6510       0.3500       0.3500
    59.6200       0.3250       0.6680       0.6680       0.3600       0.3600
    60.3000       0.3380       0.6850       0.6850       0.3690       0.3690
    60.8500       0.3480       0.6990       0.6990       0.3770       0.3770
    61.0700       0.3530       0.7040       0.7040       0.3800       0.3800
    61.6300       0.3640       0.7190       0.7190       0.3880       0.3880
    61.9000       0.3690       0.7250       0.7250       0.3910       0.3910
    62.3000       0.3760       0.7350       0.7350       0.3970       0.3970
    62.3500       0.3770       0.7370       0.7370       0.3980       0.3980
    62.7700       0.3840       0.7470       0.7470       0.4040       0.4040
    63.1600       0.3910       0.7570       0.7570       0.4090       0.4090
    63.3000       0.3940       0.7610       0.7610       0.4110       0.4110
    63.6500       0.4000       0.7700       0.7700       0.4160       0.4160
    64.1100       0.4080       0.7810       0.7810       0.4220       0.4220
    64.6000       0.4170       0.7960       0.7960       0.4290       0.4290
    65.2100       0.4280       0.8180       0.8180       0.4370       0.4370
    65.7100       0.4390       0.8360       0.8360       0.4430       0.4430
    65.8500       0.4420       0.8410       0.8410       0.4450       0.4450
    66.2600       0.4511       0.8556       0.8556       0.4505       0.4505
    66.3000       0.4520       0.8570       0.8570       0.4510       0.4510
    66.3700       0.4536       0.8595       0.8595       0.4519       0.4519
    67.1400       0.4710       0.8870       0.8870       0.4620       0.4620
    67.3500       0.4750       0.8950       0.8950       0.4650       0.4650
    68.3500       0.4980       0.9260       0.9260       0.4840       0.4840
    69.6500       0.5250       0.9650       0.9650       0.5110       0.5110
    70.0000       0.5320       0.9750       0.9750       0.5180       0.5180
    70.5400       0.5430       0.9910       0.9910       0.5290       0.5290
    70.7500       0.5470       0.9970       0.9970       0.5340       0.5340
    71.0000       0.5520       1.0050       1.0050       0.5390       0.5390
    71.9400       0.5710       1.0330       1.0330       0.5590       0.5590
    72.3100       0.5790       1.0440       1.0440       0.5660       0.5660
    72.6300       0.5850       1.0560       1.0560       0.5720       0.5720
    72.8000       0.5890       1.0620       1.0620       0.5750       0.5750
    72.9500       0.5920       1.0670       1.0670       0.5780       0.5780
    73.4700       0.6041       1.0860       1.0860       0.5867       0.5867
    73.5500       0.6060       1.0890       1.0890       0.5880       0.5880
    74.2100       0.6210       1.1130       1.1130       0.6000       0.6000
    74.4400       0.6260       1.1210       1.1210       0.6040       0.6040
    74.8300       0.6350       1.1350       1.1350       0.6110       0.6110
    75.0300       0.6400       1.1430       1.1430       0.6150       0.6150
    75.2900       0.6460       1.1520       1.1520       0.6200       0.6200
    75.4600       0.6500       1.1580       1.1580       0.6230       0.6230
    75.7300       0.6560       1.1680       1.1680       0.6280       0.6280
    76.0100       0.6620       1.1780       1.1780       0.6330       0.6330
    76.4800       0.6730       1.1950       1.1950       0.6410       0.6410
    76.8300       0.6810       1.2080       1.2080       0.6470       0.6470
    76.9400       0.6840       1.2120       1.2120       0.6490       0.6490
    77.3000       0.6920       1.2250       1.2250       0.6560       0.6560
    77.7400       0.7030       1.2400       1.2400       0.6640       0.6640
    78.5600       0.7250       1.2700       1.2700       0.6780       0.6780
    78.7000       0.7290       1.2750       1.2750       0.6810       0.6810
    79.0800       0.7390       1.2890       1.2890       0.6880       0.6880
    79.4800       0.7500       1.3030       1.3030       0.6950       0.6950
    79.7600       0.7570       1.3130       1.3130       0.7000       0.7000
    80.0000       0.7640       1.3220       1.3220       0.7040       0.7040
    80.5500       0.7780       1.3420       1.3420       0.7140       0.7140
    82.4300       0.8290       1.4140       1.4140       0.7520       0.7520
    82.7400       0.8369       1.4289       1.4289       0.7612       0.7612
    82.8400       0.8390       1.4338       1.4338       0.7643       0.7643
    83.4200       0.8510       1.4620       1.4620       0.7830       0.7830
    83.6700       0.8570       1.4740       1.4740       0.7900       0.7900
    84.0000       0.8640       1.4900       1.4900       0.8010       0.8010
    86.7700       0.9230       1.6250       1.6250       0.8860       0.8860
    86.8600       0.9251       1.6293       1.6293       0.8886       0.8886
    86.9800       0.9280       1.6350       1.6350       0.8920       0.8920
    87.3000       0.9350       1.6510       1.6510       0.9020       0.9020
    87.6100       0.9410       1.6660       1.6660       0.9120       0.9120
    88.0900       0.9518       1.6895       1.6895       0.9267       0.9267
    88.1100       0.9520       1.6900       1.6900       0.9270       0.9270
    88.1400       0.9530       1.6920       1.6920       0.9280       0.9280
    88.4200       0.9590       1.7050       1.7050       0.9370       0.9370
    88.6400       0.9640       1.7160       1.7160       0.9430       0.9430
    88.9000       0.9710       1.7280       1.7280       0.9510       0.9510
    89.1400       0.9770       1.7400       1.7400       0.9590       0.9590
    89.7000       0.9920       1.7670       1.7670       0.9760       0.9760
    90.1400       1.0040       1.7890       1.7890       0.9900       0.9900
    90.4500       1.0120       1.8040       1.8040       0.9990       0.9990
    90.7100       1.0190       1.8160       1.8160       1.0070       1.0070
    91.0000       1.0260       1.8310       1.8310       1.0160       1.0160
    91.4800       1.0390       1.8540       1.8540       1.0310       1.0310
    91.6900       1.0450       1.8640       1.8640       1.0370       1.0370
    91.8100       1.0480       1.8700       1.8700       1.0410       1.0410
    92.0900       1.0550       1.8840       1.8840       1.0500       1.0500
    92.8100       1.0740       1.9190       1.9190       1.0720       1.0720
    93.6100       1.0960       1.9570       1.9570       1.0970       1.0970
    94.0700       1.1080       1.9800       1.9800       1.1110       1.1110
    94.2500       1.1130       1.9890       1.9890       1.1160       1.1160
    94.3900       1.1160       1.9950       1.9950       1.1210       1.1210
    94.9000       1.1300       2.0200       2.0200       1.1360       1.1360
    95.3700       1.1420       2.0430       2.0430       1.1510       1.1510
    95.5100       1.1460       2.0500       2.0500       1.1550       1.1550
    95.8100       1.1530       2.0640       2.0640       1.1640       1.1640
    96.0500       1.1590       2.0760       2.0760       1.1720       1.1720
    96.4900       1.1700       2.0970       2.0970       1.1850       1.1850
    96.8300       1.1780       2.1140       2.1140       1.1960       1.1960
    97.1200       1.1850       2.1280       2.1280       1.2050       1.2050
    97.5100       1.1940       2.1470       2.1470       1.2170       1.2170
    97.8700       1.2030       2.1640       2.1640       1.2280       1.2280
    98.1200       1.2090       2.1770       2.1770       1.2350       1.2350
    98.2600       1.2127       2.1834       2.1834       1.2399       1.2399
    98.5000       1.2180       2.1950       2.1950       1.2470       1.2470
    99.7100       1.2480       2.2540       2.2540       1.2840       1.2840
    99.9900       1.2540       2.2670       2.2670       1.2930       1.2930
   100.5400       1.2680       2.2940       2.2940       1.3100       1.3100
   103.0100       1.3270       2.4140       2.4140       1.3860       1.3860
   103.1500       1.3310       2.4210       2.4210       1.3900       1.3900
   103.5800       1.3420       2.4420       2.4420       1.4040       1.4040
   103.9400       1.3510       2.4590       2.4590       1.4150       1.4150
   105.2300       1.3840       2.5220       2.5220       1.4540       1.4540
   106.2500       1.4100       2.5720       2.5720       1.4860       1.4860
   108.0500       1.4570       2.6590       2.6590       1.5410       1.5410
   109.9800       1.5060       2.7530       2.7530       1.6010       1.6010
   110.5600       1.5210       2.7810       2.7810       1.6190       1.6190
   110.6200       1.5230       2.7840       2.7840       1.6200       1.6200
   110.7600       1.5260       2.7910       2.7910       1.6250       1.6250
   111.1600       1.5370       2.8100       2.8100       1.6370       1.6370
   111.2500       1.5390       2.8150       2.8150       1.6400       1.6400
   113.8000       1.6030       2.9390       2.9390       1.7180       1.7180
   114.0900       1.6110       2.9530       2.9530       1.7270       1.7270
   114.2400       1.6140       2.9600       2.9600       1.7320       1.7320
   115.3900       1.6430       3.0160       3.0160       1.7670       1.7670
   115.8200       1.6540       3.0370       3.0370       1.7810       1.7810
   116.7500       1.6770       3.0820       3.0820       1.8180       1.8180
   117.2000       1.6880       3.1040       3.1040       1.8370       1.8370
   120.4000       1.7670       3.2680       3.2680       1.9660       1.9660
   121.1500       1.7860       3.3220       3.3220       1.9960       1.9960
   121.7900       1.8010       3.3670       3.3670       2.0220       2.0220
   122.7000       1.8240       3.4320       3.4320       2.0580       2.0580
   123.5000       1.8430       3.4890       3.4890       2.0900       2.0900
   127.6500       1.9690       3.7830       3.7830       2.2670       2.2670
   129.8700       2.0380       3.9410       3.9410       2.3640       2.3640
   130.3000       2.0520       3.9710       3.9710       2.3810       2.3810
   131.0200       2.0740       4.0210       4.0210       2.4090       2.4090
   131.2100       2.0800       4.0350       4.0350       2.4160       2.4160
   136.2100       2.2330       4.3850       4.3850       2.6110       2.6110
   136.2800       2.2350       4.3900       4.3900       2.6140       2.6140
   136.3400       2.2370       4.3940       4.3940       2.6160       2.6160
   136.4500       2.2400       4.4010       4.4010       2.6210       2.6210
   136.4800       2.2410       4.4040       4.4040       2.6220       2.6220
   141.2000       2.2600       4.7300       4.7300       2.8200       2.8200
   144.2700       2.2420       4.9360       4.9360       2.9490       2.9490
   145.0400       2.2370       4.9880       4.9880       2.9820       2.9820
   148.4000       2.2170       5.2130       5.2130       3.1360       3.1360
   150.1000       2.2060       5.3270       5.3270       3.2150       3.2150
   152.1500       2.1940       5.4730       5.4730       3.3170       3.3170
   154.1800       2.1820       5.6170       5.6170       3.4190       3.4190
   157.7300       2.3630       5.8690       5.8690       3.5960       3.5960
   158.3700       2.4070       5.9140       5.9140       3.6280       3.6280
   159.9800       2.5160       6.0290       6.0290       3.7090       3.7090
   160.3700       2.5420       6.0550       6.0550       3.7290       3.7290
   162.0000       2.6491       6.1630       6.1630       3.8127       3.8127
   164.1500       2.7970       6.3080       6.3080       3.9260       3.9260
   167.5000       3.0210       6.5320       6.5320       4.1050       4.1050
   168.1700       3.0660       6.5770       6.5770       4.1410       4.1410
   168.5500       3.0910       6.6030       6.6030       4.1620       4.1620
   168.9200       3.1160       6.6280       6.6280       4.1820       4.1820
   169.7000       3.1680       6.6800       6.6800       4.2240       4.2240
   171.0800       3.2590       6.7680       6.7680       4.2980       4.2980
   172.1700       3.3310       6.8370       6.8370       4.3570       4.3570
   173.0800       3.3910       6.8940       6.8940       4.4060       4.4060
   174.5800       3.4900       6.9890       6.9890       4.4870       4.4870
   175.2600       3.5350       7.0310       7.0310       4.5260       4.5260
   177.2400       3.6600       7.1560       7.1560       4.6440       4.6440
   178.0500       3.6870       7.2070       7.2070       4.6930       4.6930
   179.2700       3.7280       7.2840       7.2840       4.7660       4.7660
   179.7500       3.7450       7.3140       7.3140       4.7950       4.7950
   180.4100       3.7670       7.3640       7.3640       4.8390       4.8390
   181.1400       3.7910       7.4230       7.4230       4.8900       4.8900
   182.1700       3.8260       7.5080       7.5080       4.9620       4.9620
   183.4500       3.8690       7.6130       7.6130       5.0510       5.0510
   184.5300       3.9050       7.7010       7.7010       5.1270       5.1270
   184.8000       3.9140       7.7240       7.7240       5.1460       5.1460
   185.2100       3.9270       7.7570       7.7570       5.1740       5.1740
   186.6000       3.9730       7.8710       7.8710       5.2690       5.2690
   186.8700       3.9820       7.8930       7.8930       5.2870       5.2870
   187.9500       4.0180       7.9820       7.9820       5.3610       5.3610
   188.2300       4.0280       8.0050       8.0050       5.3800       5.3800
   188.3100       4.0300       8.0110       8.0110       5.3850       5.3850
   190.0200       4.0870       8.1510       8.1510       5.5010       5.5010
   191.0400       4.1200       8.2240       8.2240       5.5690       5.5690
   191.3400       4.1300       8.2450       8.2450       5.5880       5.5880
   192.4000       4.1650       8.3200       8.3200       5.6580       5.6580
   192.8200       4.1790       8.3500       8.3500       5.6860       5.6860
   193.5200       4.2020       8.4000       8.4000       5.7320       5.7320
   195.1300       4.2550       8.5140       8.5140       5.8400       5.8400
   196.5200       4.3000       8.6130       8.6130       5.9420       5.9420
   196.6500       4.3050       8.6220       8.6220       5.9520       5.9520
   197.4400       4.3300       8.6780       8.6780       6.0110       6.0110
   198.5800       4.3680       8.7590       8.7590       6.0950       6.0950
   200.0200       4.4140       8.8610       8.8610       6.2020       6.2020
   201.1300       4.4510       8.9400       8.9400       6.2860       6.2860
   202.0500       4.4800       9.0060       9.0060       6.3560       6.3560
   202.6400       4.4990       9.0470       9.0470       6.4010       6.4010
   203.8100       4.5370       9.1310       9.1310       6.4900       6.4900
   204.2500       4.5510       9.1620       9.1620       6.5230       6.5230
   204.9400       4.5740       9.2110       9.2110       6.5750       6.5750
   206.2600       4.6160       9.3040       9.3040       6.6830       6.6830
   206.3800       4.6200       9.3130       9.3130       6.6930       6.6930
   207.4600       4.6520       9.3900       9.3900       6.7820       6.7820
   208.3300       4.6780       9.4510       9.4510       6.8530       6.8530
   209.6300       4.7160       9.5440       9.5440       6.9600       6.9600
   209.7800       4.7200       9.5540       9.5540       6.9720       6.9720
   211.3200       4.7650       9.6660       9.6660       7.0980       7.0980
   212.1400       4.7890       9.7260       9.7260       7.1650       7.1650
   213.7800       4.8360       9.8460       9.8460       7.3000       7.3000
   214.7500       4.8640       9.9170       9.9170       7.3790       7.3790
   215.1600       4.8760       9.9470       9.9470       7.4140       7.4140
   216.8800       4.9250      10.0720      10.0720       7.5690       7.5690
   218.1900       4.9630      10.1680      10.1680       7.6870       7.6870
   219.1300       4.9900      10.2360      10.2360       7.7720       7.7720
   220.0800       5.0170      10.3060      10.3060       7.8570       7.8570
   221.4400       5.0560      10.4150      10.4150       7.9740       7.9740
   221.8200       5.0670      10.4460      10.4460       8.0070       8.0070
   224.7400       5.1490      10.6790      10.6790       8.2580       8.2580
   225.1200       5.1600      10.7100      10.7100       8.2900       8.2900
   227.0100       5.2130      10.8610      10.8610       8.4530       8.4530
   227.1900       5.2180      10.8750      10.8750       8.4680       8.4680
   227.4700       5.2260      10.8980      10.8980       8.4920       8.4920
   228.7000       5.2610      10.9960      10.9960       8.5980       8.5980
   230.6500       5.3150      11.1520      11.1520       8.7630       8.7630
   231.5500       5.3400      11.2240      11.2240       8.8370       8.8370
   232.6000       5.3690      11.3080      11.3080       8.9230       8.9230
   233.8400       5.4040      11.4070      11.4070       9.0250       9.0250
   234.3800       5.4190      11.4500      11.4500       9.0690       9.0690
   237.1200       5.4942      11.6692      11.6692       9.2810       9.2810
   237.2000       5.4964      11.6756      11.6756       9.2871       9.2871
   237.3300       5.5000      11.6860      11.6860       9.2970       9.2970
   239.8700       5.5700      11.8900      11.8900       9.4900       9.4900
   240.7100       5.5930      11.9640      11.9640       9.5430       9.5430
   241.7400       5.6210      12.0570      12.0570       9.6040       9.6040
   243.0300       5.6560      12.1730      12.1730       9.6820       9.6820
   243.7800       5.6759      12.2398      12.2398       9.7272       9.7272
   244.9200       5.7070      12.3430      12.3430       9.7950       9.7950
   245.9400       5.7350      12.4350      12.4350       9.8410       9.8410
   246.2100       5.7422      12.4593      12.4593       9.8536       9.8536
   246.9100       5.7610      12.5220      12.5220       9.8840       9.8840
   247.1800       5.7680      12.5460      12.5460       9.8960       9.8960
   249.1800       5.8120      12.7260      12.7260       9.9840       9.9840
   251.1000       5.8810      12.8990      12.8990      10.0550      10.0550
   251.9500       5.9120      12.9760      12.9760      10.0820      10.0820
   252.1900       5.9210      12.9970      12.9970      10.0900      10.0900
   253.7800       5.9780      13.1400      13.1400      10.1410      10.1410
   256.3200       6.0510      13.3690      13.3690      10.2060      10.2060
   256.3800       6.0530      13.3740      13.3740      10.2080      10.2080
   256.6400       6.0600      13.3980      13.3980      10.2130      10.2130
   256.9200       6.0674      13.4225      13.4225      10.2184      10.2184
   257.1600       6.0740      13.4440      13.4440      10.2230      10.2230
   257.3900       6.0800      13.4650      13.4650      10.2280      10.2280
   258.3600       6.1060      13.5520      13.5520      10.2470      10.2470
   259.5200       6.1370      13.6570      13.6570      10.2700      10.2700
   261.0500       6.1870      13.8050      13.8050      10.3050      10.3050
   262.9900       6.2550      13.9990      13.9990      10.3520      10.3520
   264.2400       6.2980      14.1240      14.1240      10.3820      10.3820
   264.8000       6.3180      14.1800      14.1800      10.3950      10.3950
   270.5100       6.5180      14.7410      14.7410      10.5110      10.5110
   271.9900       6.5700      14.8590      14.8590      10.5440      10.5440
   272.6400       6.5920      14.9110      14.9110      10.5580      10.5580
   274.1900       6.6470      15.0350      15.0350      10.5920      10.5920
   275.3500       6.6870      15.1280      15.1280      10.6220      10.6220
   275.6700       6.6980      15.1540      15.1540      10.6330      10.6330
   276.1500       6.7150      15.1920      15.1920      10.6490      10.6490
   276.8400       6.7390      15.2470      15.2470      10.6730      10.6730
   277.0000       6.7450      15.2600      15.2600      10.6780      10.6780
   277.2700       6.7540      15.2820      15.2820      10.6870      10.6870
   278.4000       6.7940      15.3720      15.3720      10.7260      10.7260
   281.4100       6.9280      15.5990      15.5990      10.8190      10.8190
   284.1500       7.0780      15.7900      15.7900      10.8960      10.8960
   285.7000       7.1640      15.8990      15.8990      10.9450      10.9450
   289.1700       7.3540      16.1420      16.1420      11.0700      11.0700
   290.6900       7.4100      16.2350      16.2350      11.1230      11.1230
   291.7000       7.4260      16.2850      16.2850      11.1580      11.1580
   292.7800       7.4420      16.3390      16.3390      11.1950      11.1950
   296.1900       7.4930      16.5100      16.5100      11.3250      11.3250
   299.5000       7.5430      16.6750      16.6750      11.4770      11.4770
   303.3100       7.6810      16.7990      16.7990      11.6740      11.6740
   303.7800       7.6990      16.8130      16.8130      11.6990      11.6990
   315.0200       8.0760      17.1000      17.1000      12.3710      12.3710
   316.2000       8.1170      17.1240      17.1240      12.4560      12.4560
   319.0100       8.2150      17.1800      17.1800      12.6590      12.6590
   319.8300       8.2440      17.1970      17.1970      12.7180      12.7180
   320.5600       8.2700      17.2060      17.2060      12.7750      12.7750
   335.4100       8.7730      17.4080      17.4080      13.9850      13.9850
   345.1300       9.0890      17.6540      17.6540      14.8320      14.8320
   345.7400       9.1090      17.6720      17.6720      14.8880      14.8880
   347.3900       9.1640      17.7220      17.7220      15.0400      15.0400
   349.8500       9.2450      17.7950      17.7950      15.2660      15.2660
   356.0100       9.4420      17.9200      17.9200      15.8210      15.8210
   360.8000       9.5960      18.0320      18.0320      16.2520      16.2520
   364.4800       9.7180      18.1790      18.1790      16.5830      16.5830
   368.0700       9.8360      18.3230      18.3230      16.9060      16.9060
   399.8200      11.7770      19.5930      19.5930      20.0520      20.0520
   401.1400      11.7090      19.6460      19.6460      20.1780      20.1780
   401.9400      11.6450      19.6780      19.6780      20.2540      20.2540
   403.2600      11.5390      19.7300      19.7300      20.3800      20.3800
   417.2400      11.2100      20.2170      20.2170      21.6210      21.6210
   430.4700      11.4920      20.7140      20.7140      22.6620      22.6620
   436.7000      11.3850      20.9010      20.9010      22.9480      22.9480
   453.0000      10.7650      21.4900      21.4900      23.0850      23.0850
   454.0000      10.1760      21.5200      21.5200      23.0800      23.0800
   455.0000      12.7570      21.5500      21.5500      23.0750      23.0750
   456.0000      13.8450      21.5800      21.5800      23.0700      23.0700
   457.0000      12.6150      21.6100      21.6100      23.0650      23.0650
   458.0000      12.2440      21.6400      21.6400      23.0600      23.0600
   459.0000      11.8740      21.6700      21.6700      23.0550      23.0550
   460.0000      11.8170      21.7000      21.7000      23.0500      23.0500
   461.0000      11.8390      21.7400      21.7400      23.0720      23.0720
   462.0000      11.8600      21.7800      21.7800      23.0940      23.0940
   463.0000      11.8810      21.8200      21.8200      23.1160      23.1160
   464.0000      11.9030      21.8600      21.8600      23.1380      23.1380
   465.0000      11.9240      21.9000      21.9000      23.1600      23.1600
   465.2200      11.9290      21.9090      21.9090      23.1650      23.1650
   466.0000      11.9460      21.9400      21.9400      23.1820      23.1820
   467.0000      11.9670      21.9800      21.9800      23.2040      23.2040
   468.0000      11.9890      22.0200      22.0200      23.2260      23.2260
   469.0000      12.0100      22.0600      22.0600      23.2480      23.2480
   470.0000      12.0310      22.1000      22.1000      23.2700      23.2700
   471.0000      12.0530      22.1500      22.1500      23.3030      23.3030
   472.0000      12.0740      22.2000      22.2000      23.3360      23.3360
   473.0000      12.0960      22.2500      22.2500      23.3690      23.3690
   474.0000      11.9670      22.3000      22.3000      23.4020      23.4020
   475.0000      11.8000      22.3500      22.3500      23.4350      23.4350
   476.0000      11.4600      22.4000      22.4000      23.4680      23.4680
   477.0000      11.6140      22.4500      22.4500      23.5010      23.5010
   478.0000      12.1380      22.5000      22.5000      23.5340      23.5340
   479.0000      12.3330      22.5500      22.5500      23.5670      23.5670
   480.0000      12.2000      22.6000      22.6000      23.6000      23.6000
   481.0000      15.5670      22.6400      22.6400      23.5900      23.5900
   482.0000      13.5000      22.6800      22.6800      23.5800      23.5800
   483.0000      13.0430      22.7200      22.7200      23.5700      23.5700
   484.0000      12.9500      22.7600      22.7600      23.5600      23.5600
   485.0000      12.8610      22.8000      22.8000      23.5500      23.5500
   486.0000      12.7290      22.8400      22.8400      23.5400      23.5400
   487.0000      12.5740      22.8800      22.8800      23.5300      23.5300
   488.0000      12.3820      22.9200      22.9200      23.5200      23.5200
   489.0000      12.1910      22.9600      22.9600      23.5100      23.5100
   489.5000      12.0960      22.9800      22.9800      23.5050      23.5050
   490.0000      12.0000      23.0000      23.0000      23.5000      23.5000
   491.0000      12.1590      23.0600      23.0600      23.5000      23.5000
   492.0000      12.2570      23.1200      23.1200      23.5000      23.5000
   493.0000      12.2120      23.1800      23.1800      23.5000      23.5000
   494.0000      12.1670      23.2400      23.2400      23.5000      23.5000
   495.0000      12.1230      23.3000      23.3000      23.5000      23.5000
   496.0000      12.0780      23.3600      23.3600      23.5000      23.5000
   497.0000      12.0340      23.4200      23.4200      23.5000      23.5000
   498.0000      11.9890      23.4800      23.4800      23.5000      23.5000
   499.0000      11.9450      23.5400      23.5400      23.5000      23.5000
   499.3700      11.9280      23.5620      23.5620      23.5000      23.5000
   500.0000      11.9000      23.6000      23.6000      23.5000      23.5000
   501.0000      11.7730      23.6400      23.6400      23.5160      23.5160
   502.0000      11.7740      23.6800      23.6800      23.5320      23.5320
   503.0000      11.7900      23.7200      23.7200      23.5480      23.5480
   504.0000      11.8060      23.7600      23.7600      23.5640      23.5640
   507.9300      11.8670      23.9170      23.9170      23.7260      23.7260
   515.6000      11.9560      24.2800      24.2800      24.2500      24.2500
   520.6600      12.0070      24.5260      24.5260      24.6120      24.6120
   525.8000      12.0580      24.7320      24.7320      24.8640      24.8640
   537.0200      12.2400      25.2510      25.2510      25.2310      25.2310
   542.8000      12.3560      25.2810      25.2810      25.1320      25.1320
   550.0000      12.5000      25.9000      25.9000      24.7000      24.7000
   554.3700      12.5870      26.0410      26.0410      24.1320      24.1320
   558.6000      12.6720      26.1000      26.1000      23.5820      23.5820
   562.8000      12.7560      26.0440      26.0440      23.1480      23.1480
   568.5000      12.8700      25.8600      25.8600      22.6350      22.6350
   572.3000      12.9230      25.6620      25.6620      22.4770      22.4770
   580.4000      13.0080      24.6080      24.6080      22.4000      22.4000
   584.3300      13.0870      22.7220      22.7220      22.4000      22.4000
   592.4000      13.2240      20.8050      20.8050      22.4430      22.4430
   599.6000      13.2960      28.4910      28.4910      22.5730      22.5730
   609.7600      13.3980      26.3900      28.0750      22.7950      22.7950
   616.6000      13.4000      25.6880      26.4280      22.9980      22.9980
   624.9300      13.4000      24.7500      26.0580      23.2380      23.2380
   629.7300      13.4000      31.0980      32.0560      23.3720      23.3720
   638.5000      13.3150      25.9860      26.1670      23.6180      23.6180
   640.4100      13.2880      26.4810      26.9650      23.6720      23.6720
   640.9300      13.2720      26.8960      27.4710      23.6870      23.6870
   641.8100      13.2460      27.5910      28.3280      23.7120      23.7120
   644.1000      13.1770      20.7800      21.2830      23.7790      23.7790
   650.3000      12.9880      26.0270      26.9870      23.9580      23.9580
   657.3000      12.7080      26.7930      27.4430      24.1320      24.1320
   661.4000      12.4420      25.3910      25.6860      23.3560      25.7440
   671.5000      10.9840      20.4410      20.8580      33.3000      34.3000
   681.7000      14.0190      21.2110      21.7710      51.4440      55.3010
   685.7100      25.4900      20.1120      20.1120      22.9390      23.7000
   690.8000       9.4750      19.7500      21.2750       7.5400      23.1090
   694.3000       9.0200      19.4930      21.2750      46.5900      42.7380
   700.0000      12.0470      23.1770      27.2670      22.4000      23.8000
   701.0000       8.0250      26.3500      31.0000      24.1000      25.5000
   702.0000      13.5870      18.4170      21.6670      28.6000      30.1000
   703.0000      12.0220      24.0830      28.3330      27.1000      28.3000
   703.3600      11.4580      23.7520      27.4400      25.4800      26.5360
   704.0000      10.4560      31.2010      34.7530      22.6000      23.4000
   705.0000       9.6000      48.9190      56.6360      22.3000      25.7940
   706.0000       9.7200      35.7970      42.5760      21.0000      25.7830
   707.0000       9.8200      21.6350      25.3620      19.6000      25.7720
   708.0000       9.8370      22.6180      26.3300      19.0000      25.7610
   709.0000       9.7310      22.0620      25.9750      18.1000      25.7500
   710.0000       9.1500      24.6800      29.3920      17.8000      25.7390
   711.0000       9.2950      34.6110      41.7000      18.0000      25.7280
   712.0000       9.2720      26.1290      32.9500      18.0000      25.7170
   712.7000       9.2500      29.9550      36.8000      17.0200      25.7090
   713.0000       9.2350      30.7540      37.4640      16.6000      25.7060
   714.0000       9.1850      27.4730      33.1000      14.2000      25.3000
   715.0000       9.2140      28.0040      33.6150       4.5000      18.5500
   716.0000       9.1690      23.4900      29.0000       3.0000      16.2600
   717.0000       8.9320      21.4300      28.3570      10.5000      20.6600
   718.0000       8.8430      24.7490      28.7110      11.0000      25.0600
   718.5000       8.9080      23.0160      27.3500      17.5500      23.2000
   719.0000       8.9740      21.2710      25.9890      24.1000      27.4000
   720.0000       9.0000      24.6730      30.4800      14.0000      25.6630
   721.0000       8.9170      24.1530      29.2670      12.7000      24.7760
   722.0000       8.9860      22.6540      27.0500      15.8000      31.5380
   723.0000       8.8700      19.8600      25.8600      35.6000      38.3000
   724.0000      14.3000      22.6380      26.9500      33.1000      57.5470
   725.0000      50.9010      21.5050      25.3000      22.6000      37.9580
   726.0000      24.0670      36.5590      42.3000      15.7000      29.2430
   727.0000      13.9560      31.6970      36.4330      16.7000      26.5290
   728.0000       8.9900      26.9310      30.3800       7.1000      24.1730
   729.0000       9.1700      25.3890      27.9000       6.3000      22.9410
   730.0000       8.6890      26.8090      29.9690      16.9000      23.0770
   731.0000       8.3070      30.3770      34.8150      12.1000      23.1130
   732.0000       8.0760      33.4130      37.2290      13.1000      22.2420
   733.0000       5.2080      36.3520      39.6750       8.8000      21.3710
   734.0000       8.6180      30.2150      33.6100      10.2000      20.5000
   735.0000      15.0000      30.3370      34.9100      11.3000      25.0000
   736.0000      16.1250      31.7830      34.2320       8.8000      20.5000
   737.0000      10.4000      29.8620      32.7050       9.2000      26.4000
   738.0000      12.5000      27.7350      31.6170      23.7000      18.2000
   739.0000      14.3750      23.0560      26.4500       9.9000      27.3000
   740.0000       9.0800      19.5320      25.7000      10.0000      23.6000
   741.0000      18.4110      17.2940      21.0330       7.5000      17.3000
   742.0000      11.7690      17.1250      21.3000      10.1000      18.2000
   743.0000       6.3330      14.7630      18.6400       5.8000      13.2000
   744.0000      21.7630      16.3000      19.0560       8.9000      31.8000
   745.0000       9.6750      15.1700      20.5000      11.3000      31.8000
   746.0000       5.4250      12.8260      19.1430       6.3000      15.9000
   747.0000       5.4870      14.1510      21.2000       5.9000      22.7000
   748.0000      20.1000      11.3880      15.6000      11.3000      38.6000
   749.0000      20.3290      14.0530      19.7000       6.4000      18.6000
   750.0000       9.8200      16.5810      23.8000      10.0000      33.2000
   750.0100       9.7540      16.5330      23.7370       9.9410      33.0950
   751.0000       5.0030      11.9000      17.5000       4.1000      22.7000
   752.0000       4.3470      11.7820      17.7380       5.2000      18.2000
   753.0000       4.4000       9.9260      15.3050       4.5000      13.6000
   754.0000       4.7570      12.2750      19.3520      13.8000      27.3000
   755.0000      22.3430      14.5080      23.4000      28.5000      30.0000
   756.0000      40.1850      10.2600      19.0000      14.3000      20.0000
   757.0000      13.1150      10.2680      18.5000      24.2000      50.0000
   758.0000      12.7000       9.9750      17.5000      10.3000      16.8000
   758.6800       9.7080      10.6500      18.6840      19.1510      27.8630
   759.0000       8.3000      10.3260      17.9800      14.5000      19.0430
   759.4400       6.3640       9.9140      17.2260      10.3600      12.6950
   760.0000       3.9000       9.7340      18.9920      12.3000      23.8250
   760.3000       4.0590       9.7700      19.9380      14.5340      27.8000
   761.0000       4.0500      10.8580      20.4880      24.5000      46.0000
   761.1300       4.0490      10.2840      20.1790      23.0180      48.6000
   762.0000       4.0380       9.8170      19.6330      11.7000      36.4000
   763.0000       4.0250      11.1830      21.1570      10.6000      16.0000
   764.0000       4.0130      11.4900      19.3860      22.2000      18.2000
   765.0000       4.0000      10.5470      19.9000     106.9000     150.0000
   765.1500       3.9970      11.7180      20.8000      65.7960     120.4940
   766.0000       3.9800      13.6490      20.7770      14.0000      14.5000
   767.0000       3.9600      12.2610      19.5500       9.7000      13.4090
   768.0000       3.9400      11.2350      18.1910      11.7000      36.2510
   769.0000       3.9200      11.6100      19.3500      16.0000      25.0000
   770.0000       3.9000       8.8870      17.2000       9.4000      26.8500
   770.4100       3.8920       8.4720      18.9090       8.4980      14.1820
   771.0000       3.8800       9.4750      20.8250      11.4000      25.0000
   772.0000       3.8600      12.2400      24.0000      26.0000      50.0000
   773.0000       3.8400      16.7650      26.3720      10.3000      21.5000
   774.0000       3.8200      13.0490      20.9500       8.0000      14.5000
   775.0000       3.8000       7.8990      14.4500      12.5000      40.9000
   776.0000       3.7800      11.1070      18.4500      63.3000     125.0000
   777.0000       3.7600      16.1070      23.6170      14.0500      24.5000
   778.0000       3.7400      21.9330      28.7830       7.2000      15.9000
   779.0000       3.7200       8.2720      25.0670       8.6000      40.5380
   780.0000       3.7000      12.5550      27.9000       7.0000      14.5000
   780.3200       3.7000      11.0010      25.0410       8.6000      25.8600
   781.0000       3.7000       7.9030      18.9670      41.7000      50.0000
   782.0000       3.7000       6.9390      16.7500      13.4000      34.0000
   783.0000       3.7000       9.0390      20.7000       7.8000      18.2000
   784.0000       3.7000      11.5840      23.9670      48.4000     224.3570
   785.0000       3.7000      16.2000      24.3000       6.4000     125.0000
   786.0000       3.7130      16.0800      26.8000      22.8000      45.5000
   786.4700       3.7180       8.0430      20.0500      11.6150      28.1830
   787.0000       3.7250       9.3070      22.7000       7.8000      10.5000
   787.7100       3.7340      10.7600      25.2870       6.9220       7.7160
   788.0000       3.7370      10.6480      24.2000       6.4000       9.0380
   789.0000       3.7500      11.5240      26.8000       7.2000      13.6000
   790.0000       3.7620      10.1880      28.3000      11.0000      25.5830
   790.1500       3.7640       9.8300      27.4810      10.0250      21.6000
   791.0000       3.7750       7.8700      22.8380      41.0000      58.1000
   792.0000      14.0300       7.1990      25.4640      50.9000     100.0000
   793.0000      32.6430       9.6190      25.6770      12.1000      29.5000
   794.0000       2.8000      16.4550      33.0620       6.2000      25.0000
   795.0000       2.9160      10.8360      23.1000      12.3000      54.5000
   796.0000       3.0320       9.4430      21.9000       4.5000      13.1000
   797.0000       3.1480      10.9100      27.6060       1.0000       8.0000
   798.0000       3.2640       9.9400      28.0000       0.0000       8.0000
   799.0000       3.3800      10.7230      35.1570       0.0000       8.0000
   800.0000       3.4960      12.2320      36.8000       0.0000       8.0000
   801.0000       3.6120      13.4640      30.8000       0.0000      40.0000
   802.0000       3.7280      12.9600      30.0000       0.0000      40.0000
   803.0000       3.8440       8.9970      30.5550       0.0000       1.0000
   804.0000       3.9600       9.5500      33.2190       0.0000       6.7000
   805.0000       7.2000      17.2760      47.6570       0.0000      10.9000
   806.0000       3.6400      15.3760      39.0580       0.0000      18.0000
   807.0000       2.0570      11.7180      27.9000       0.0000      46.7000
   808.0000       2.1290      10.6120      34.9830       0.0000       6.7000
   809.0000       2.2020       7.3210      26.1450       0.0000      33.3000
   810.0000       2.2740      10.7450      31.4560       0.0000       8.0000
   811.0000      32.6230      19.1330      44.5360       0.0000       1.0000
   812.0000       3.6700      20.8450      47.6850       0.0000       4.7000
   813.0000       2.3780       9.8110      31.7330       0.0000      33.4000
   814.0000       3.1940      11.8970      30.9000       0.0000      80.0000
   815.0000       4.0110       9.7150      19.7650       0.0000      10.7000
   816.0000       4.8270      15.9180      31.4170       0.0000      14.0000
   817.0000       4.1400      22.4740      43.0690       0.0000      40.0000
   818.0000       2.5900      13.5100      25.1600       0.0000      66.0000
   819.0000       1.6850      11.6330      25.8500       0.0000      92.0000
   820.0000       1.9540      10.6100      29.5200       0.0000       3.0000
   821.0000       2.2230       6.8160      19.1200       0.0000      26.7000
   822.0000       2.4920       7.2590      20.5320       0.0000       3.0000
   823.0000       2.7620       9.4680      27.0050       0.0000       3.0000
   824.0000       3.0310       9.0110      17.3660       0.0000       3.0000
   825.0000       3.3000       9.7340      23.1750       0.0000      13.3000
   826.0000       3.3000       8.7000      29.0000       0.0000      33.3000
   827.0000       3.3000       4.9600      11.9800       0.0000      13.3000
   828.0000       3.3000       4.7200      11.8600       0.0000       3.0000
   829.0000       3.3000       7.3450      18.5180       0.0000       3.0000
   830.0000       3.3000       7.9490      21.0500       0.0000       3.0000
   831.0000       3.3000       3.8730      10.8000       0.0000       3.0000
   832.0000       3.3000       8.6240      25.4000       0.0000       3.0000
   833.0000       3.3000       9.8100      25.7310       0.0000       3.0000
   834.0000       3.3000       4.5550      11.7930       0.0000      13.3000
   834.2000       3.3000       4.0290      10.5000       0.0000      13.3000
   835.0000       3.3000       3.8490      10.3560       0.0000      83.3000
   836.0000       3.3000       5.4510      14.7330       0.0000       3.0000
   837.0000       3.3000       5.3080      14.3470       0.0000       3.0000
   838.0000       3.3000       5.3740      14.5250       0.0000      13.3000
   839.0000       3.3000      10.7230      24.1500       0.0000      60.0000
   840.0000       3.3000       8.3340      19.8900       0.0000       3.0000
   841.0000       3.2900       5.6670      14.3230       0.0000      26.7000
   842.0000       3.2800       3.2600       8.7570       0.0000      96.7000
   843.0000       3.2700       3.6720      10.3710       0.0000       6.7000
   844.0000       3.2600       4.0740      11.7250       0.0000       1.0000
   845.0000       3.2500       4.3290      12.6460       0.0000      13.3000
   846.0000       3.2400       5.0760      17.9410       0.0000       1.0000
   847.0000       3.2300       3.5460      11.3530       0.0000       1.0000
   848.0000       3.2200       2.6690       7.5780       0.0000       1.0000
   849.0000       3.2100       3.3380       7.5140       0.0000       1.0000
   850.0000       3.2000       3.7970       8.7140       0.0000      46.7000
   851.0000       3.1800       3.8700       9.3330       0.0000      13.3000
   852.0000       3.1600       3.9080       9.1710       0.0000       3.0000
   853.0000       3.1400       5.2650      12.0290       0.0000       3.0000
   854.0000       3.1200       4.3780      10.1560       0.0000      66.7000
   855.0000       3.1000       2.9820       7.1000       0.0000      20.0000
   856.0000       3.1000       3.5480       8.3610       0.0000       3.0000
   857.0000       3.1000       4.1250       9.6220       0.0000       8.7000
   858.0000       3.1000       3.6800       8.7840       0.0000      13.3000
   859.0000       3.1000       2.8410       7.0470       0.0000       3.0000
   860.0000       3.1000       3.5520       7.0110       0.0000       3.0000
   861.0000       3.1000       4.7360       7.4000       0.0000       6.0000
   862.0000       3.1000       5.0300       7.9280       0.0000       1.0000
   863.0000       3.1000       5.3180       8.4560       0.0000       1.0000
   864.0000       3.1000       5.6000       8.9830       0.0000       6.0000
   865.0000       3.1000       5.4250       8.8070       0.0000       1.0000
   866.0000       3.1000       4.5890       7.5730       0.0000       3.0000
   867.0000       3.1000       3.7790       6.3400       0.0000      65.0000
   868.0000       3.1000       3.5600       6.0330       0.0000      14.0000
   869.0000       3.1000       4.1990       7.1170       0.0000      10.0000
   870.0000       3.1000       4.8380       8.2000       0.0000       3.0000
   871.0000       3.9360       5.5970       9.4860       0.0000      25.0000
   872.0000       4.7710       5.5640       9.3050       0.0000      80.0000
   873.0000       5.6070       4.9780       8.1470       0.0000      12.0000
   874.0000       6.4420       4.3630       6.9890       0.0000       6.0000
   875.0000       7.2780       3.7170       5.8320       0.0000       3.0000
   876.0000       8.1130       5.0680       7.7520       0.0000     107.0000
   877.0000       8.9490       7.0070      10.4410       0.0000      30.0000
   878.0000      10.4000       9.0380      13.1310       0.0000      22.0000
   879.0000      47.2760       8.1360      11.9120       0.0000      12.0000
   880.0000       5.1100       6.9280      10.2580       0.0000       3.0000
   881.0000       4.6580       5.7450       8.6040       0.0000     110.0000
   882.0000       4.2060       4.5870       6.9500       0.0000      51.0000
   883.0000       3.7540       3.4550       5.2960       0.0000      27.0000
   884.0000       3.3020       5.4570       8.4680       0.0000       1.0000
   885.0000       2.8500       8.7240      13.7080       0.0000       1.0000
   886.0000       2.8200      10.9530      17.1060       0.0000       9.0000
   887.0000       2.7900       9.0880      13.1360       0.0000      70.0000
   888.0000       2.7600       6.8140       9.1670       0.0000      30.0000
   889.0000       2.7300       4.1310       5.1970       0.0000      20.0000
   890.0000       2.7000       6.0000       7.5000       0.0000      12.0000
   891.0000       2.7100       8.4000      10.5000       0.0000      67.0000
   892.0000       2.7200       6.7680       8.4600       0.0000      15.0000
   893.0000       2.7300       4.6880       5.8600       0.0000       1.0000
   894.0000       2.7400       7.8400      11.2000       0.0000      10.0000
   895.0000       2.7500       6.3390       8.0890       0.0000       3.0000
   896.0000       2.7700       3.4110       5.8400       0.0000       3.0000
   897.0000       2.7900       4.2520       7.0400       0.0000      11.0000
   898.0000       2.8100       3.7360       6.1000       0.0000       1.0000
   899.0000       2.8300       3.4610       5.6200       0.0000       6.0000
   900.0000       2.8500       5.1730       8.3530       0.0000      12.0000
   901.0000       2.8300       7.8260      12.9000       0.0000       3.0000
   902.0000       2.8100       5.7230       9.7000       0.0000       6.0000
   903.0000       2.7900       7.2870      10.3110       0.0000      10.0000
   904.0000       2.7700       8.1010      10.2850       0.0000       8.0000
   904.1000       2.7680       7.8360      10.0270       0.0000       9.2000
   905.0000       2.7500       5.5970       7.7080       0.0000      12.0000
   906.0000       2.7500       3.4100       5.1310       0.0000       3.0000
   907.0000       2.7500       4.2380       6.5370       0.0000       1.0000
   908.0000       2.6850       7.0200      10.6000       0.0000      15.0000
   909.0000       2.5540       9.9140      14.6630       0.0000       9.0000
   910.0000       1.1500      10.4880      15.2000       0.0000       3.0000
   911.0000       0.4940       9.5800      15.2320       0.0000      14.0000
   912.0000       0.1400       6.9180      10.6960       0.0000       1.0000
   913.0000       0.0000       4.0950       6.1610       0.0000      82.0000
   913.9900       0.0000       4.4634       6.0799       0.0000      15.2566
   914.0000       0.0000       4.4840       6.1000       0.0000      15.0000
   914.9900       0.0000       4.6993       6.3339       0.0000       3.0000
   915.0000       0.0000       4.6620       6.3000       0.0000       3.0000
   915.9900       0.0000       5.5974       8.7530       0.0000       1.0000
   916.0000       0.0000       5.7120       8.9250       0.0000       1.0000
   916.9900       0.0000      14.3725      20.8451       0.0000       1.0777
   917.0000       0.0000      14.4810      20.9870       0.0000       1.0000
   918.0000       0.0000      14.7050      18.3000       0.0000       6.0000
   918.9900       0.0000      10.9206      11.9873       0.0000       3.0000
   919.0000       0.0000      10.8520      11.9250       0.0000       3.0000
   920.0000       0.0000       4.4960       5.5500       0.0000      97.5000
   920.9600       0.0000       3.4110       4.3900       0.0000      27.6400
   921.0000       0.0000       3.4900       4.4890       0.0000      27.0000
   922.0000       0.0000       5.5070       6.9700       0.0000      11.0000
   923.0000       0.0000       8.3180       9.4520       0.0000      17.0000
   923.1500       0.0000       8.2560       9.6000       0.0000      17.4500
   924.0000       0.0000      13.9700      16.1500       0.0000      20.0000
   925.0000       0.0000      15.0230      18.2160       0.0000      22.0000
   926.0000       0.0000       5.6050       7.8480       0.0000      14.0000
   926.2000       0.0000       3.9960       5.7740       0.0000       9.6000
   927.0000       0.0000       2.6680       3.9000       0.0000      18.0000
   928.0000       0.0000       2.4480       3.4600       0.0000      10.0000
   929.0000       0.0000       2.9130       4.0200       0.0000       2.0000
   930.0000       0.0000       2.7410       3.7000       0.0000      29.0000
   930.7500       0.0000      17.8620      23.7160       0.0000       4.5000
   931.0000       0.0000      15.0770      19.9110       0.0000       6.0000
   932.0000       0.0000      16.5180      21.3550       0.0000      21.0000
   933.0000       0.0000      18.7000      23.7630       0.0000       7.0000
   933.3800       0.0000      16.3800      20.6990       0.0000       4.7200
   934.0000       0.0000      12.5370      15.7000       0.0000      10.0000
   935.0000       0.0000       6.1870       7.6370       0.0000       5.0000
   936.0000       0.0000       6.0500       7.3620       0.0000       6.0000
   937.0000       0.0000      15.6400      18.7680       0.0000       1.0000
   937.8000       0.0000      23.5020      27.8920       0.0000      20.4990
   938.0000       0.0000      25.4940      30.1730       0.0000       1.0000
   939.0000       0.0000      35.6130      41.5790       0.0000     148.0000
   940.0000       0.0000      31.5400      39.4000       0.0000      27.0000
   941.0000       0.0000      22.4670      31.4000       0.0000      18.0000
   942.0000       0.0000      14.7540      23.4000       0.0000      22.0000
   943.0000       0.0000       8.4010      15.4000       0.0000      27.0000
   944.0000       0.0000       5.2820       7.4000       0.0000      11.0000
   944.5200       0.0000       2.7790       3.2400       0.0000      10.6000
   945.0000       0.0000       8.2520       9.5160       0.0000       1.0000
   946.0000       0.0000      22.3790      26.8070       0.0000       1.0000
   947.0000       0.0000      35.3910      44.0970       0.0000       3.0000
   948.0000       0.0000      38.9180      49.9690       0.0000       3.0000
   949.0000       0.0000      22.6300      29.2000       0.0000       1.0000
   949.7400       0.0000      10.6800      13.8310       0.0000      13.4800
   950.0000       0.0000       6.5010       8.4310       0.0000       1.0000
   951.0000       0.0000       6.7470       8.7630       0.0000       2.0000
   952.0000       0.0000      13.9660      18.1380       0.0000       2.0000
   953.0000       0.0000      21.1850      27.5120       0.0000      12.0000
   954.0000       0.0000      28.4030      36.8870       0.0000       3.0000
   955.0000       0.0000      35.6220      46.2620       0.0000       6.0000
   956.0000       0.0000      39.6460      51.4880       0.0000      20.0000
   957.0000       0.0000      29.6520      35.3000       0.0000       3.0000
   958.0000       0.0000      19.2500      24.3670       0.0000      18.0000
   959.0000       0.0000       9.9410      13.4330       0.0000      47.0000
   960.0000       0.0000       1.7250       2.5000       0.0000       1.0000
   961.0000       0.0000       6.6840       9.3950       0.0000      51.0000
   962.0000       0.0000      10.7080      14.6110       0.0000      18.0000
   963.0000       0.0000       7.5530       9.9820       0.0000       3.0000
   964.0000       0.0000      20.8470      26.3890       0.0000       3.0000
   965.0000       0.0000      35.2360      42.7960       0.0000       3.0000
   966.0000       0.0000      38.1110      46.0410       0.0000      67.0000
   967.0000       0.0000      29.0160      36.1230       0.0000      31.0000
   968.0000       0.0000      20.4070      26.2040       0.0000      27.0000
   969.0000       0.0000      12.2840      16.2860       0.0000      10.0000
   970.0000       0.0000       4.6470       6.3680       0.0000       6.0000
   971.0000       0.0000       7.4280      10.7430       0.0000       1.0000
   972.0000       0.0000      15.8680      24.6480       0.0000      27.0000
   972.5400       0.0000      20.1160      32.7190       0.0000     117.4410
   973.0000       0.0000      22.4640      40.4760       0.0000      88.0000
   974.0000       0.0000       7.3210      17.2250       0.0000      20.0000
   975.0000       0.0000      10.6740      18.8500       0.0000       5.0000
   976.0000       0.0000      17.5810      23.5150       0.0000       3.0000
   977.0000       0.0000      15.6230      18.8230       0.0000       2.0000
   977.0200       0.0000      15.5430      18.7290       0.0000       2.2400
   978.0000       0.0000      11.6480      14.1310       0.0000       5.0000
   979.0000       0.0000       7.7260       9.4380       0.0000      88.0000
   980.0000       0.0000       3.8580       4.7460       0.0000      27.0000
   981.0000       0.0000       8.3740      10.2040       0.0000      26.0000
   982.0000       0.0000      21.7360      25.8110       0.0000      14.0000
   983.0000       0.0000      35.7670      41.4180       0.0000      23.0000
   984.0000       0.0000      26.7860      30.8840       0.0000      17.0000
   985.0000       0.0000       7.8990       9.1480       0.0000      15.0000
   986.0000       0.0000       6.2040       7.1910       0.0000       0.0000
   987.0000       0.0000       4.5420       5.0950       0.0000       0.0000
   988.0000       0.0000       2.7600       3.0000       0.0000       0.0000
   989.0000       0.0000       2.5820       3.3000       0.0000       0.0000
   989.7900       0.0000       1.9080       2.7610       0.0000       0.0000
   990.0000       0.0000       2.8670       4.1550       0.0000       0.0000
   991.0000       0.0000       7.4460      10.7910       0.0000       0.0000
   991.5500       0.0000      10.0410      14.4410       0.0000       0.0000
   992.0000       0.0000      12.9470      17.4270       0.0000       0.0000
   993.0000       0.0000      19.3530      22.8000       0.0000       0.0000
   994.0000       0.0000      18.0330      21.3850       0.0000       0.0000
   995.0000       0.0000      12.5750      15.1550       0.0000       0.0000
   996.0000       0.0000       7.2850       8.9260       0.0000       0.0000
   997.0000       0.0000       2.1640       2.6960       0.0000       0.0000
   998.0000       0.0000       1.1770       1.4610       0.0000       0.0000
   999.0000       0.0000       1.2000       1.4760       0.0000       0.0000
  1000.0000       0.0000       1.2220       1.4900       0.0000       0.0000
  1001.0000       0.0000       2.2420       2.6930       0.0000       0.0000
  1002.0000       0.0000       3.2910       3.8950       0.0000       0.0000
  1003.0000       0.0000       4.3710       5.0980       0.0000       0.0000
  1004.0000       0.0000       5.4810       6.3000       0.0000       0.0000
  1005.0000       0.0000       4.6450       5.4050       0.0000       0.0000
  1006.0000       0.0000       2.6900       3.1690       0.0000       0.0000
  1007.0000       0.0000       1.2240       1.4600       0.0000       0.0000
  1008.0000       0.0000       1.4780       1.7860       0.0000       0.0000
  1009.0000       0.0000       1.1800       1.4440       0.0000       0.0000
  1010.0000       0.0000       1.1730       1.4540       0.0000       0.0000
  1010.2000       0.0000       1.1520       1.4320       0.0000       0.0000
  1011.0000       0.0000       1.0700       1.3440       0.0000       0.0000
  1012.0000       0.0000       0.9060       1.1530       0.0000       0.0000
  1013.0000       0.0000       0.9540       1.2320       0.0000       0.0000
  1014.0000       0.0000       0.8810       1.1530       0.0000       0.0000
  1015.0000       0.0000       1.1190       1.4850       0.0000       0.0000
  1016.0000       0.0000       0.8840       1.1900       0.0000       0.0000
  1017.0000       0.0000       0.9180       1.2530       0.0000       0.0000
  1018.0000       0.0000       0.8590       1.1900       0.0000       0.0000
  1019.0000       0.0000       0.8460       1.1900       0.0000       0.0000
  1020.0000       0.0000       0.8950       1.2780       0.0000       0.0000
  1021.0000       0.0000       0.9660       1.4000       0.0000       0.0000
  1022.0000       0.0000       0.9980       1.4700       0.0000       0.0000
  1023.0000       0.0000       1.0940       1.6360       0.0000       0.0000
  1024.0000       0.0000       0.9410       1.4300       0.0000       0.0000
  1025.0000       0.0000       0.9400       1.4510       0.0000       0.0000
  1025.7200       0.0000       1.0000       1.6320       0.0000       0.0000
  1026.0000       0.0000       0.0000       1.5190       0.0000       0.0000
  1027.0000       0.0000       0.0000       1.1150       0.0000       0.0000
