    wavelength    O+(4S)      O+(2D)      O+(2P)      O+(4Pe)     O+(2Pe)     O++         O+(total)
      23.70       0.011       0.012       0.008       0.004       0.002       0.000       0.035
      28.47       0.019       0.021       0.014       0.007       0.004       0.000       0.064
      28.79       0.020       0.022       0.014       0.007       0.005       0.000       0.066
      29.52       0.021       0.023       0.015       0.008       0.005       0.000       0.070
      30.00       0.022       0.024       0.016       0.008       0.005       0.000       0.073
      30.02       0.022       0.024       0.016       0.008       0.005       0.000       0.073
      30.27       0.022       0.025       0.016       0.008       0.005       0.000       0.075
      30.43       0.023       0.025       0.017       0.008       0.005       0.000       0.076
      31.00       0.024       0.026       0.017       0.009       0.006       0.000       0.079
      31.62       0.025       0.027       0.018       0.009       0.006       0.000       0.083
      33.74       0.029       0.032       0.021       0.011       0.007       0.000       0.096
      35.40       0.032       0.035       0.023       0.012       0.007       0.000       0.106
      40.95       0.042       0.046       0.031       0.015       0.010       0.000       0.140
      41.30       0.043       0.046       0.031       0.016       0.010       0.000       0.142
      43.76       0.049       0.049       0.030       0.019       0.013       0.000       0.157
      44.02       0.049       0.049       0.030       0.019       0.013       0.000       0.158
      44.16       0.049       0.049       0.030       0.019       0.013       0.000       0.159
      44.20       0.049       0.049       0.030       0.019       0.013       0.000       0.159
      44.30       0.050       0.050       0.030       0.019       0.013       0.010       0.171
      44.70       0.051       0.051       0.031       0.020       0.013       0.011       0.175
      45.30       0.053       0.053       0.032       0.020       0.014       0.012       0.182
      45.66       0.053       0.053       0.032       0.020       0.014       0.012       0.182
      45.90       0.053       0.053       0.032       0.020       0.014       0.012       0.183
      46.40       0.053       0.053       0.032       0.020       0.014       0.012       0.183
      46.67       0.053       0.053       0.039       0.020       0.014       0.012       0.183
      47.70       0.050       0.054       0.036       0.019       0.012       0.013       0.183
      47.87       0.050       0.055       0.036       0.019       0.012       0.013       0.184
      49.22       0.055       0.055       0.037       0.018       0.012       0.014       0.193
      49.60       0.055       0.056       0.037       0.018       0.012       0.015       0.195
      50.36       0.054       0.060       0.036       0.019       0.011       0.016       0.203
      50.52       0.055       0.060       0.036       0.019       0.011       0.016       0.205
      50.69       0.055       0.061       0.036       0.019       0.011       0.016       0.207
      51.70       0.059       0.065       0.041       0.019       0.016       0.018       0.218
      52.30       0.062       0.068       0.043       0.018       0.018       0.018       0.225
      52.34       0.062       0.068       0.043       0.019       0.019       0.019       0.225
      52.91       0.061       0.068       0.044       0.019       0.019       0.019       0.231
      53.90       0.064       0.074       0.044       0.020       0.020       0.021       0.241
      54.15       0.065       0.076       0.045       0.020       0.020       0.021       0.245
      54.42       0.066       0.077       0.045       0.020       0.020       0.022       0.249
      54.70       0.064       0.076       0.051       0.018       0.018       0.022       0.253
      55.06       0.073       0.077       0.051       0.019       0.019       0.023       0.258
      55.34       0.071       0.076       0.052       0.026       0.019       0.024       0.262
      56.08       0.074       0.079       0.054       0.027       0.020       0.025       0.272
      56.40       0.074       0.082       0.054       0.027       0.020       0.026       0.277
      56.92       0.074       0.087       0.054       0.028       0.020       0.027       0.284
      57.36       0.073       0.086       0.055       0.026       0.021       0.028       0.290
      57.56       0.074       0.087       0.055       0.026       0.021       0.028       0.293
      57.88       0.080       0.085       0.053       0.027       0.019       0.029       0.297
      58.96       0.081       0.095       0.061       0.028       0.020       0.032       0.312
      59.00       0.081       0.095       0.062       0.028       0.020       0.032       0.313
      59.62       0.084       0.099       0.064       0.029       0.020       0.033       0.325
      60.30       0.087       0.100       0.063       0.030       0.021       0.035       0.338
      60.85       0.093       0.099       0.062       0.028       0.022       0.036       0.348
      61.07       0.094       0.107       0.063       0.028       0.022       0.037       0.353
      61.63       0.091       0.107       0.071       0.029       0.029       0.038       0.364
      61.90       0.099       0.105       0.069       0.030       0.030       0.039       0.369
      62.00       0.098       0.106       0.069       0.031       0.029       0.039       0.371
      62.30       0.097       0.110       0.070       0.033       0.027       0.040       0.376
      62.35       0.097       0.111       0.070       0.034       0.027       0.040       0.377
      62.77       0.099       0.113       0.068       0.034       0.027       0.041       0.384
      62.92       0.100       0.113       0.069       0.034       0.028       0.042       0.387
      63.16       0.104       0.111       0.070       0.035       0.028       0.042       0.391
      63.30       0.105       0.119       0.070       0.035       0.028       0.043       0.394
      63.65       0.103       0.117       0.078       0.036       0.028       0.044       0.400
      63.72       0.103       0.117       0.075       0.036       0.028       0.044       0.401
      64.11       0.109       0.116       0.076       0.033       0.029       0.045       0.408
      64.38       0.110       0.119       0.075       0.033       0.027       0.046       0.413
      64.60       0.111       0.122       0.074       0.033       0.026       0.046       0.417
      65.21       0.110       0.121       0.080       0.034       0.027       0.048       0.428
      65.30       0.111       0.122       0.080       0.034       0.027       0.048       0.430
      65.71       0.116       0.128       0.081       0.035       0.027       0.049       0.439
      65.85       0.117       0.129       0.082       0.035       0.027       0.050       0.442
      66.30       0.116       0.128       0.080       0.040       0.032       0.051       0.452
      67.14       0.125       0.137       0.087       0.042       0.033       0.053       0.471
      67.35       0.122       0.134       0.088       0.042       0.034       0.054       0.475
      67.60       0.124       0.137       0.088       0.041       0.034       0.054       0.481
      68.35       0.132       0.145       0.088       0.040       0.035       0.056       0.498
      68.90       0.133       0.147       0.092       0.041       0.034       0.058       0.510
      69.65       0.134       0.148       0.097       0.042       0.032       0.060       0.525
      70.00       0.136       0.150       0.094       0.047       0.033       0.061       0.532
      70.54       0.144       0.158       0.101       0.048       0.034       0.062       0.543
      70.75       0.145       0.154       0.101       0.048       0.034       0.063       0.547
      71.00       0.146       0.156       0.102       0.049       0.034       0.064       0.552
      71.94       0.151       0.161       0.111       0.045       0.040       0.066       0.571
      72.19       0.149       0.162       0.108       0.046       0.041       0.067       0.576
      72.31       0.148       0.163       0.107       0.046       0.041       0.067       0.579
      72.63       0.149       0.165       0.108       0.046       0.041       0.068       0.585
      72.80       0.155       0.161       0.109       0.047       0.041       0.069       0.589
      72.90       0.156       0.165       0.109       0.047       0.042       0.069       0.591
      72.95       0.156       0.167       0.109       0.047       0.042       0.069       0.592
      73.55       0.154       0.170       0.112       0.053       0.043       0.071       0.606
      74.21       0.164       0.175       0.115       0.055       0.038       0.073       0.621
      74.44       0.165       0.176       0.116       0.055       0.039       0.074       0.626
      74.83       0.162       0.178       0.117       0.056       0.039       0.075       0.635
      75.03       0.169       0.180       0.118       0.056       0.039       0.076       0.640
      75.29       0.170       0.181       0.119       0.057       0.040       0.077       0.646
      75.46       0.171       0.182       0.120       0.057       0.040       0.077       0.650
      75.73       0.167       0.178       0.121       0.052       0.046       0.078       0.656
      76.01       0.174       0.186       0.122       0.052       0.046       0.079       0.662
      76.48       0.171       0.183       0.124       0.059       0.047       0.081       0.673
      76.83       0.179       0.191       0.125       0.060       0.048       0.082       0.681
      76.94       0.180       0.192       0.126       0.060       0.048       0.083       0.684
      77.30       0.182       0.194       0.121       0.061       0.048       0.084       0.692
      77.50       0.180       0.195       0.125       0.058       0.046       0.085       0.697
      77.74       0.179       0.197       0.129       0.055       0.043       0.085       0.703
      78.56       0.184       0.197       0.133       0.057       0.051       0.088       0.725
      78.70       0.191       0.204       0.134       0.064       0.051       0.089       0.729
      79.08       0.194       0.207       0.136       0.065       0.052       0.090       0.739
      79.48       0.197       0.210       0.138       0.066       0.052       0.092       0.750
      79.76       0.199       0.212       0.139       0.066       0.053       0.093       0.757
      80.00       0.200       0.214       0.140       0.067       0.053       0.094       0.764
      80.21       0.202       0.215       0.141       0.061       0.047       0.094       0.769
      80.55       0.204       0.211       0.143       0.061       0.048       0.096       0.778
      80.94       0.207       0.221       0.145       0.069       0.048       0.097       0.789
      81.16       0.208       0.222       0.146       0.069       0.056       0.098       0.795
      81.58       0.211       0.225       0.148       0.070       0.056       0.099       0.806
      81.94       0.214       0.228       0.150       0.071       0.057       0.101       0.816
      82.10       0.215       0.229       0.150       0.069       0.057       0.101       0.820
      82.43       0.217       0.232       0.152       0.065       0.058       0.103       0.829
      82.67       0.219       0.233       0.153       0.066       0.058       0.104       0.835
      82.70       0.219       0.233       0.153       0.066       0.058       0.104       0.836
      83.25       0.222       0.229       0.155       0.074       0.052       0.105       0.848
      83.42       0.223       0.238       0.156       0.074       0.052       0.106       0.851
      83.67       0.224       0.239       0.157       0.075       0.052       0.106       0.857
      84.00       0.226       0.241       0.158       0.075       0.053       0.107       0.864
      84.26       0.228       0.243       0.159       0.076       0.061       0.108       0.869
      84.50       0.229       0.244       0.160       0.076       0.061       0.109       0.875
      84.72       0.230       0.246       0.161       0.069       0.061       0.109       0.879
      84.86       0.231       0.246       0.162       0.069       0.062       0.110       0.882
      85.16       0.233       0.248       0.163       0.078       0.062       0.111       0.889
      85.50       0.235       0.250       0.164       0.078       0.063       0.112       0.896
      85.69       0.236       0.251       0.165       0.079       0.063       0.112       0.900
      85.87       0.237       0.253       0.166       0.079       0.063       0.113       0.904
      86.23       0.239       0.255       0.167       0.080       0.056       0.114       0.912
      86.40       0.240       0.256       0.168       0.080       0.056       0.114       0.915
      86.77       0.242       0.258       0.169       0.073       0.056       0.115       0.923
      86.98       0.243       0.259       0.170       0.073       0.065       0.116       0.928
      87.30       0.245       0.261       0.171       0.073       0.065       0.117       0.935
      87.61       0.246       0.263       0.173       0.082       0.066       0.118       0.941
      88.10       0.249       0.266       0.174       0.083       0.066       0.119       0.952
      88.11       0.249       0.266       0.174       0.083       0.066       0.119       0.952
      88.14       0.249       0.266       0.175       0.083       0.067       0.119       0.953
      88.42       0.251       0.268       0.176       0.084       0.067       0.120       0.959
      88.60       0.245       0.269       0.176       0.084       0.067       0.121       0.963
      88.64       0.244       0.269       0.177       0.084       0.067       0.121       0.964
      88.90       0.254       0.271       0.178       0.085       0.059       0.122       0.971
      89.14       0.256       0.273       0.179       0.077       0.060       0.122       0.977
      89.70       0.260       0.277       0.182       0.078       0.069       0.124       0.992
      90.14       0.263       0.280       0.184       0.088       0.070       0.125       1.004
      90.45       0.265       0.283       0.186       0.088       0.071       0.126       1.012
      90.71       0.258       0.285       0.187       0.089       0.071       0.127       1.019
      91.00       0.269       0.287       0.188       0.090       0.072       0.128       1.026
      91.48       0.272       0.290       0.191       0.082       0.064       0.130       1.039
      91.69       0.274       0.292       0.192       0.091       0.064       0.130       1.045
      91.81       0.275       0.293       0.192       0.092       0.064       0.131       1.048
      92.09       0.277       0.295       0.194       0.092       0.074       0.131       1.055
      92.55       0.280       0.299       0.196       0.093       0.075       0.133       1.068
      92.81       0.282       0.300       0.197       0.094       0.075       0.134       1.074
      93.61       0.287       0.307       0.201       0.086       0.077       0.136       1.096
      94.07       0.291       0.310       0.203       0.097       0.077       0.137       1.108
      94.25       0.292       0.311       0.204       0.097       0.068       0.138       1.113
      94.39       0.293       0.312       0.205       0.098       0.068       0.138       1.116
      94.81       0.296       0.316       0.207       0.099       0.079       0.140       1.127
      94.90       0.296       0.316       0.208       0.099       0.079       0.140       1.130
      95.37       0.300       0.320       0.210       0.090       0.080       0.141       1.142
      95.40       0.300       0.318       0.210       0.090       0.080       0.141       1.143
      95.51       0.301       0.311       0.210       0.090       0.080       0.142       1.146
      95.81       0.303       0.323       0.212       0.091       0.081       0.143       1.153
      96.05       0.304       0.324       0.213       0.101       0.081       0.143       1.159
      96.49       0.307       0.328       0.215       0.102       0.082       0.145       1.170
      96.83       0.309       0.330       0.216       0.103       0.072       0.145       1.178
      97.12       0.311       0.332       0.218       0.104       0.073       0.146       1.185
      97.51       0.314       0.335       0.220       0.094       0.084       0.147       1.194
      97.87       0.316       0.337       0.221       0.105       0.084       0.148       1.203
      98.12       0.318       0.339       0.222       0.106       0.085       0.149       1.209
      98.23       0.318       0.339       0.223       0.106       0.085       0.149       1.212
      98.50       0.320       0.341       0.224       0.107       0.085       0.150       1.218
      98.88       0.322       0.344       0.226       0.107       0.086       0.151       1.227
      99.44       0.326       0.348       0.228       0.098       0.076       0.153       1.241
      99.71       0.328       0.350       0.229       0.098       0.076       0.153       1.248
      99.99       0.330       0.352       0.231       0.110       0.088       0.154       1.254
     100.54       0.333       0.355       0.233       0.111       0.089       0.156       1.268
     100.96       0.336       0.358       0.235       0.112       0.090       0.157       1.278
     101.57       0.340       0.362       0.238       0.102       0.091       0.159       1.293
     102.15       0.344       0.366       0.241       0.115       0.080       0.160       1.307
     103.01       0.349       0.372       0.244       0.116       0.093       0.163       1.327
     103.15       0.350       0.373       0.245       0.117       0.093       0.163       1.331
     103.17       0.350       0.374       0.245       0.117       0.093       0.163       1.331
     103.30       0.351       0.374       0.246       0.113       0.094       0.163       1.334
     103.58       0.353       0.376       0.247       0.106       0.094       0.164       1.342
     103.94       0.355       0.379       0.249       0.118       0.095       0.165       1.351
     104.23       0.358       0.381       0.250       0.119       0.095       0.166       1.358
     104.76       0.361       0.385       0.253       0.120       0.084       0.167       1.372
     105.23       0.365       0.389       0.255       0.122       0.097       0.168       1.384
     106.25       0.372       0.396       0.260       0.124       0.099       0.171       1.410
     106.57       0.374       0.399       0.262       0.125       0.100       0.171       1.419
     106.93       0.376       0.402       0.264       0.125       0.088       0.172       1.428
     107.80       0.383       0.408       0.268       0.128       0.099       0.174       1.450
     108.05       0.384       0.410       0.269       0.128       0.102       0.175       1.457
     108.46       0.387       0.413       0.271       0.129       0.103       0.176       1.467
     109.50       0.395       0.421       0.276       0.132       0.105       0.178       1.494
     109.98       0.398       0.424       0.279       0.133       0.106       0.179       1.506
     110.56       0.402       0.429       0.281       0.121       0.107       0.181       1.521
     110.62       0.402       0.429       0.282       0.121       0.107       0.181       1.523
     110.76       0.403       0.430       0.282       0.121       0.108       0.181       1.526
     111.16       0.406       0.433       0.284       0.135       0.095       0.182       1.537
     111.25       0.407       0.434       0.285       0.136       0.095       0.182       1.539
     112.70       0.417       0.445       0.292       0.131       0.105       0.186       1.576
     113.80       0.425       0.453       0.297       0.127       0.113       0.188       1.603
     114.09       0.427       0.455       0.299       0.142       0.114       0.188       1.611
     114.24       0.428       0.456       0.299       0.143       0.114       0.189       1.614
     115.39       0.436       0.465       0.305       0.131       0.102       0.191       1.643
     115.80       0.438       0.468       0.307       0.145       0.116       0.192       1.653
     115.82       0.439       0.468       0.307       0.146       0.117       0.192       1.654
     116.75       0.445       0.475       0.311       0.148       0.119       0.193       1.677
     117.20       0.448       0.478       0.314       0.134       0.119       0.194       1.688
     118.10       0.454       0.485       0.318       0.141       0.121       0.196       1.710
     120.00       0.467       0.499       0.327       0.154       0.125       0.199       1.757
     120.40       0.470       0.501       0.329       0.157       0.125       0.200       1.767
     121.15       0.475       0.507       0.333       0.158       0.127       0.201       1.786
     121.79       0.480       0.512       0.336       0.160       0.128       0.202       1.801
     122.70       0.486       0.518       0.340       0.162       0.130       0.204       1.824
     123.50       0.492       0.524       0.344       0.164       0.131       0.205       1.843
     124.00       0.495       0.528       0.346       0.165       0.132       0.206       1.856
     125.00       0.504       0.538       0.353       0.168       0.134       0.207       1.887
     127.65       0.528       0.563       0.369       0.176       0.141       0.211       1.969
     129.87       0.547       0.584       0.383       0.182       0.146       0.214       2.038
     130.00       0.548       0.585       0.384       0.183       0.146       0.214       2.042
     130.30       0.551       0.588       0.386       0.184       0.147       0.214       2.052
     130.50       0.553       0.590       0.387       0.184       0.147       0.215       2.058
     131.02       0.558       0.595       0.390       0.186       0.149       0.215       2.074
     131.21       0.559       0.597       0.391       0.186       0.149       0.215       2.080
     135.00       0.578       0.633       0.415       0.198       0.158       0.219       2.196
     136.21       0.584       0.644       0.423       0.201       0.161       0.220       2.233
     136.28       0.584       0.645       0.423       0.201       0.161       0.220       2.235
     136.34       0.585       0.645       0.423       0.202       0.161       0.220       2.237
     136.45       0.586       0.646       0.424       0.202       0.162       0.220       2.240
     136.48       0.586       0.647       0.424       0.202       0.162       0.220       2.241
     137.80       0.597       0.659       0.433       0.206       0.165       0.221       2.281
     140.00       0.595       0.657       0.431       0.205       0.164       0.215       2.267
     141.20       0.594       0.655       0.430       0.205       0.164       0.212       2.260
     144.21       0.591       0.652       0.428       0.204       0.163       0.204       2.242
     144.27       0.591       0.654       0.428       0.204       0.163       0.204       2.242
     145.00       0.590       0.672       0.427       0.203       0.163       0.202       2.237
     145.04       0.590       0.671       0.427       0.203       0.163       0.202       2.237
     145.90       0.589       0.665       0.427       0.203       0.163       0.200       2.232
     148.38       0.587       0.647       0.425       0.202       0.162       0.194       2.217
     148.40       0.587       0.648       0.425       0.202       0.162       0.194       2.217
     150.00       0.585       0.665       0.424       0.202       0.161       0.189       2.207
     150.10       0.585       0.666       0.424       0.202       0.161       0.189       2.206
     152.15       0.583       0.663       0.422       0.201       0.161       0.184       2.194
     152.84       0.562       0.662       0.422       0.201       0.161       0.182       2.190
     154.18       0.561       0.661       0.421       0.200       0.160       0.179       2.182
     154.20       0.561       0.661       0.421       0.200       0.160       0.179       2.182
     155.00       0.560       0.660       0.420       0.200       0.160       0.177       2.177
     157.73       0.609       0.718       0.457       0.218       0.174       0.186       2.363
     158.37       0.621       0.732       0.488       0.222       0.177       0.189       2.407
     158.38       0.621       0.732       0.488       0.222       0.177       0.189       2.407
     159.94       0.650       0.765       0.510       0.232       0.186       0.193       2.513
     159.98       0.650       0.766       0.511       0.232       0.186       0.194       2.516
     160.00       0.651       0.767       0.511       0.232       0.186       0.194       2.517
     160.37       0.657       0.775       0.516       0.235       0.188       0.195       2.542
     164.13       0.725       0.855       0.570       0.259       0.207       0.205       2.796
     164.15       0.726       0.855       0.570       0.259       0.207       0.205       2.797
     165.00       0.741       0.874       0.582       0.265       0.212       0.207       2.854
     165.30       0.747       0.880       0.587       0.267       0.213       0.208       2.874
     167.50       0.786       0.927       0.618       0.281       0.225       0.212       3.021
     168.17       0.799       0.941       0.627       0.285       0.228       0.214       3.066
     168.55       0.805       0.949       0.633       0.288       0.230       0.214       3.091
     168.92       0.812       0.957       0.638       0.290       0.232       0.215       3.116
     169.70       0.826       0.974       0.649       0.295       0.236       0.216       3.168
     170.00       0.832       0.980       0.654       0.297       0.238       0.217       3.187
     171.06       0.851       1.003       0.669       0.304       0.243       0.219       3.258
     171.08       0.851       1.003       0.669       0.304       0.243       0.219       3.259
     172.12       0.870       1.026       0.684       0.311       0.249       0.220       3.328
     172.17       0.869       1.027       0.684       0.311       0.249       0.220       3.331
     172.92       0.853       1.043       0.695       0.316       0.253       0.221       3.381
     173.08       0.856       1.046       0.697       0.317       0.254       0.221       3.391
     173.10       0.856       1.046       0.698       0.317       0.254       0.221       3.393
     174.53       0.914       1.077       0.718       0.326       0.261       0.223       3.487
     174.58       0.912       1.078       0.719       0.327       0.261       0.223       3.490
     175.00       0.901       1.087       0.725       0.329       0.264       0.224       3.518
     175.24       0.894       1.092       0.728       0.331       0.265       0.224       3.533
     175.26       0.894       1.093       0.728       0.331       0.265       0.224       3.535
     175.47       0.898       1.097       0.731       0.332       0.266       0.224       3.549
     177.10       0.926       1.132       0.755       0.343       0.274       0.225       3.655
     177.22       0.927       1.133       0.756       0.343       0.275       0.225       3.659
     177.24       0.927       1.133       0.756       0.343       0.275       0.225       3.660
     178.02       0.935       1.142       0.762       0.346       0.277       0.225       3.686
     178.05       0.935       1.143       0.762       0.346       0.277       0.225       3.687
     179.27       0.946       1.156       0.771       0.350       0.280       0.224       3.728
     179.74       0.951       1.162       0.774       0.352       0.282       0.224       3.744
     179.75       0.951       1.162       0.775       0.352       0.282       0.224       3.745
     180.00       0.953       1.165       0.776       0.353       0.282       0.224       3.753
     180.40       0.957       1.169       0.779       0.354       0.283       0.223       3.766
     180.41       0.957       1.170       0.780       0.354       0.283       0.223       3.767
     180.71       0.959       1.208       0.782       0.355       0.284       0.223       3.777
     181.14       0.963       1.178       0.785       0.357       0.285       0.223       3.791
     182.16       0.973       1.225       0.793       0.360       0.288       0.222       3.825
     182.17       0.973       1.225       0.793       0.360       0.288       0.222       3.826
     182.39       0.975       1.228       0.794       0.361       0.289       0.222       3.833
     183.45       0.985       1.240       0.802       0.365       0.292       0.221       3.869
     183.91       0.989       1.245       0.806       0.366       0.293       0.221       3.884
     184.10       0.991       1.211       0.807       0.367       0.294       0.221       3.890
     184.52       0.995       1.253       0.810       0.368       0.295       0.220       3.904
     184.53       0.995       1.253       0.811       0.368       0.295       0.220       3.905
     184.76       0.997       1.255       0.812       0.369       0.295       0.220       3.912
     184.80       0.997       1.256       0.813       0.369       0.295       0.220       3.914
     185.00       0.999       1.258       0.814       0.370       0.296       0.220       3.920
     185.21       1.001       1.261       0.816       0.371       0.297       0.220       3.927
     186.60       1.014       1.277       0.826       0.376       0.300       0.218       3.973
     186.87       1.016       1.280       0.828       0.376       0.301       0.218       3.982
     187.95       1.026       1.293       0.836       0.380       0.304       0.217       4.018
     188.23       1.029       1.296       0.838       0.381       0.305       0.217       4.028
     188.31       1.030       1.297       0.839       0.381       0.305       0.216       4.030
     188.70       1.033       1.301       0.842       0.383       0.306       0.216       4.043
     190.00       1.045       1.316       0.852       0.387       0.310       0.214       4.086
     190.02       1.046       1.317       0.852       0.387       0.310       0.214       4.087
     190.70       1.052       1.325       0.857       0.390       0.312       0.214       4.109
     191.04       1.055       1.328       0.860       0.391       0.313       0.213       4.120
     191.29       1.057       1.331       0.861       0.392       0.313       0.213       4.129
     191.34       1.058       1.332       0.862       0.392       0.313       0.213       4.130
     192.38       1.067       1.344       0.870       0.395       0.316       0.211       4.165
     192.40       1.068       1.344       0.870       0.395       0.316       0.211       4.165
     192.80       1.071       1.349       0.873       0.397       0.317       0.211       4.178
     192.82       1.071       1.349       0.873       0.397       0.317       0.211       4.179
     193.50       1.078       1.357       0.878       0.399       0.319       0.210       4.201
     193.52       1.078       1.357       0.878       0.399       0.319       0.210       4.202
     195.00       1.092       1.375       0.889       0.404       0.323       0.208       4.251
     195.13       1.093       1.376       0.890       0.405       0.324       0.208       4.255
     195.14       1.093       1.376       0.890       0.405       0.324       0.208       4.255
     196.52       1.106       1.392       0.901       0.409       0.328       0.206       4.300
     196.63       1.107       1.394       0.902       0.410       0.328       0.205       4.304
     196.65       1.107       1.394       0.902       0.410       0.328       0.205       4.305
     197.41       1.114       1.403       0.908       0.413       0.330       0.204       4.329
     197.44       1.114       1.403       0.908       0.413       0.330       0.204       4.330
     198.53       1.124       1.416       0.916       0.416       0.333       0.202       4.366
     198.58       1.125       1.416       0.916       0.417       0.333       0.202       4.368
     200.00       1.138       1.433       0.927       0.421       0.337       0.200       4.414
     200.02       1.137       1.433       0.927       0.421       0.337       0.200       4.414
     201.10       1.105       1.446       0.935       0.425       0.340       0.198       4.450
     201.13       1.106       1.446       0.936       0.425       0.340       0.198       4.451
     202.05       1.114       1.457       0.943       0.428       0.343       0.196       4.480
     202.64       1.119       1.464       0.947       0.430       0.344       0.195       4.499
     203.78       1.129       1.477       0.956       0.434       0.347       0.193       4.536
     203.81       1.130       1.477       0.956       0.434       0.348       0.193       4.537
     204.25       1.133       1.482       0.959       0.436       0.349       0.192       4.551
     204.89       1.139       1.490       0.964       0.438       0.351       0.191       4.572
     204.94       1.140       1.490       0.964       0.438       0.351       0.191       4.574
     205.00       1.140       1.491       0.965       0.439       0.351       0.190       4.576
     206.26       1.151       1.506       0.974       0.443       0.354       0.188       4.616
     206.38       1.152       1.507       0.975       0.443       0.355       0.188       4.620
     206.60       1.154       1.510       0.977       0.444       0.355       0.187       4.627
     207.46       1.162       1.519       0.983       0.447       0.357       0.185       4.652
     208.33       1.169       1.528       0.989       0.450       0.360       0.182       4.678
     209.63       1.180       1.543       0.998       0.454       0.363       0.178       4.716
     209.78       1.181       1.544       0.999       0.454       0.363       0.178       4.720
     209.93       1.182       1.546       1.000       0.455       0.364       0.177       4.724
     210.00       1.183       1.547       1.001       0.455       0.364       0.177       4.727
     211.32       1.194       1.561       1.010       0.459       0.367       0.173       4.765
     212.14       1.201       1.570       1.016       0.462       0.324       0.171       4.789
     212.15       1.201       1.570       1.016       0.462       0.323       0.171       4.789
     213.78       1.214       1.588       1.028       0.467       0.356       0.166       4.836
     213.80       1.215       1.588       1.028       0.467       0.357       0.165       4.837
     214.75       1.222       1.599       1.034       0.470       0.376       0.162       4.864
     215.00       1.225       1.601       1.036       0.471       0.377       0.162       4.871
     215.16       1.226       1.603       1.037       0.471       0.377       0.161       4.876
     216.88       1.240       1.622       1.049       0.477       0.334       0.155       4.925
     216.90       1.240       1.622       1.050       0.477       0.334       0.155       4.926
     217.00       1.241       1.623       1.050       0.477       0.334       0.155       4.929
     218.19       1.251       1.636       1.059       0.481       0.337       0.151       4.963
     218.21       1.251       1.636       1.059       0.481       0.337       0.151       4.964
     219.09       1.259       1.646       1.065       0.484       0.339       0.148       4.989
     219.13       1.259       1.646       1.065       0.484       0.339       0.147       4.990
     220.00       1.266       1.656       1.072       0.487       0.341       0.144       5.015
     220.08       1.267       1.657       1.072       0.487       0.341       0.144       5.017
     221.26       1.277       1.719       1.080       0.491       0.344       0.140       5.051
     221.40       1.278       1.720       1.081       0.492       0.344       0.139       5.055
     221.44       1.278       1.721       1.082       0.492       0.344       0.139       5.056
     221.51       1.279       1.722       1.082       0.492       0.344       0.139       5.058
     221.82       1.282       1.716       1.084       0.493       0.345       0.138       5.067
     223.26       1.294       1.692       1.095       0.498       0.348       0.132       5.107
     223.72       1.297       1.746       1.098       0.499       0.349       0.130       5.120
     224.74       1.306       1.758       1.105       0.502       0.352       0.127       5.149
     224.81       1.307       1.759       1.106       0.503       0.352       0.126       5.151
     225.00       1.308       1.761       1.107       0.503       0.352       0.126       5.157
     225.12       1.309       1.762       1.108       0.503       0.352       0.125       5.160
     227.01       1.325       1.783       1.121       0.510       0.357       0.118       5.213
     227.19       1.326       1.786       1.122       0.510       0.357       0.117       5.218
     227.47       1.329       1.789       1.124       0.511       0.358       0.116       5.226
     228.70       1.339       1.802       1.133       0.515       0.360       0.111       5.261
     228.79       1.340       1.804       1.134       0.515       0.361       0.110       5.263
     229.60       1.347       1.813       1.139       0.518       0.363       0.107       5.286
     230.00       1.350       1.817       1.142       0.519       0.363       0.105       5.297
     230.65       1.355       1.824       1.147       0.521       0.365       0.103       5.315
     231.55       1.363       1.835       1.206       0.524       0.367       0.099       5.340
     232.60       1.372       1.846       1.213       0.528       0.369       0.094       5.369
     233.84       1.382       1.860       1.222       0.532       0.372       0.089       5.404
     234.38       1.386       1.866       1.226       0.533       0.373       0.086       5.419
     235.00       1.392       1.873       1.231       0.535       0.375       0.084       5.436
     235.55       1.396       1.880       1.235       0.537       0.376       0.081       5.451
     237.33       1.411       1.900       1.248       0.543       0.380       0.073       5.500
     237.36       1.411       1.900       1.248       0.543       0.380       0.073       5.501
     238.40       1.420       1.912       1.256       0.546       0.382       0.068       5.530
     239.87       1.432       1.928       1.267       0.551       0.386       0.061       5.570
     240.00       1.433       1.930       1.268       0.551       0.386       0.060       5.573
     240.71       1.439       1.938       1.273       0.554       0.388       0.057       5.593
     240.73       1.439       1.938       1.273       0.554       0.388       0.057       5.593
     241.74       1.423       1.949       1.281       0.557       0.390       0.052       5.621
     243.03       1.403       1.964       1.290       0.561       0.393       0.045       5.656
     243.86       1.409       1.973       1.297       0.564       0.395       0.041       5.678
     244.92       1.418       1.985       1.304       0.567       0.397       0.036       5.707
     245.00       1.418       1.986       1.305       0.567       0.397       0.036       5.709
     245.94       1.426       1.996       1.312       0.570       0.399       0.031       5.735
     246.24       1.485       2.000       1.314       0.571       0.400       0.029       5.743
     246.91       1.491       2.007       1.319       0.573       0.401       0.026       5.761
     247.18       1.493       2.010       1.321       0.574       0.402       0.024       5.768
     248.00       1.500       2.043       1.327       0.577       0.404       0.020       5.790
     249.18       1.511       2.091       1.337       0.581       0.407       0.000       5.812
     249.23       1.512       2.093       1.337       0.581       0.407       0.000       5.814
     250.00       1.519       2.103       1.344       0.584       0.409       0.000       5.842
     251.10       1.529       2.117       1.353       0.588       0.412       0.000       5.881
     251.95       1.479       2.128       1.360       0.591       0.414       0.000       5.912
     251.96       1.478       2.128       1.360       0.591       0.414       0.000       5.912
     252.17       1.539       2.131       1.362       0.592       0.414       0.000       5.920
     252.19       1.539       2.131       1.362       0.592       0.414       0.000       5.921
     253.78       1.554       2.152       1.375       0.598       0.418       0.000       5.978
     253.80       1.554       2.152       1.375       0.598       0.418       0.000       5.978
     254.40       1.560       2.160       1.380       0.600       0.420       0.000       6.000
     255.00       1.564       2.166       1.384       0.602       0.421       0.000       6.016
     256.32       1.573       2.179       1.392       0.605       0.424       0.000       6.051
     256.37       1.574       2.179       1.392       0.605       0.424       0.000       6.053
     256.38       1.574       2.179       1.392       0.605       0.424       0.000       6.053
     256.64       1.576       2.182       1.394       0.606       0.424       0.000       6.060
     256.69       1.576       2.182       1.394       0.606       0.424       0.000       6.061
     257.16       1.579       2.187       1.397       0.607       0.389       0.000       6.074
     257.39       1.581       2.189       1.398       0.608       0.372       0.000       6.080
     257.48       1.581       2.190       1.399       0.608       0.365       0.000       6.082
     258.30       1.587       2.198       1.404       0.610       0.366       0.000       6.104
     258.36       1.588       2.198       1.404       0.611       0.366       0.000       6.106
     258.40       1.588       2.199       1.405       0.611       0.366       0.000       6.107
     259.50       1.534       2.209       1.411       0.614       0.368       0.000       6.137
     259.52       1.534       2.209       1.412       0.614       0.368       0.000       6.137
     260.00       1.538       2.214       1.414       0.615       0.369       0.000       6.150
     261.05       1.547       2.227       1.423       0.619       0.371       0.000       6.187
     261.08       1.547       2.228       1.423       0.619       0.371       0.000       6.188
     262.99       1.564       2.252       1.439       0.625       0.375       0.000       6.255
     264.24       1.575       2.267       1.449       0.630       0.378       0.000       6.298
     264.27       1.575       2.268       1.449       0.630       0.378       0.000       6.299
     264.80       1.579       2.274       1.453       0.632       0.379       0.000       6.318
     265.00       1.581       2.277       1.455       0.633       0.380       0.000       6.325
     269.50       1.621       2.334       1.491       0.648       0.389       0.000       6.483
     270.00       1.625       2.340       1.495       0.650       0.390       0.000       6.500
     270.50       1.629       2.346       1.499       0.652       0.391       0.000       6.517
     270.51       1.629       2.346       1.499       0.652       0.391       0.000       6.518
     271.99       1.642       2.365       1.511       0.657       0.394       0.000       6.570
     272.64       1.648       2.373       1.516       0.659       0.396       0.000       6.592
     272.70       1.649       2.374       1.517       0.659       0.396       0.000       6.595
     274.19       1.662       2.393       1.529       0.665       0.399       0.000       6.647
     274.24       1.662       2.393       1.529       0.665       0.399       0.000       6.648
     275.00       1.669       2.403       1.535       0.668       0.400       0.000       6.675
     275.35       1.672       2.407       1.538       0.669       0.401       0.000       6.687
     275.67       1.675       2.411       1.541       0.670       0.402       0.000       6.698
     275.76       1.675       2.413       1.541       0.670       0.402       0.000       6.702
     276.15       1.679       2.417       1.545       0.672       0.403       0.000       6.715
     276.77       1.684       2.425       1.549       0.674       0.404       0.000       6.737
     276.84       1.685       2.426       1.550       0.674       0.404       0.000       6.739
     277.00       1.686       2.428       1.551       0.674       0.405       0.000       6.745
     277.27       1.689       2.432       1.554       0.675       0.405       0.000       6.754
     278.40       1.698       2.446       1.563       0.679       0.408       0.000       6.794
     280.00       1.712       2.466       1.576       0.685       0.375       0.000       6.850
     280.90       1.725       2.484       1.587       0.690       0.357       0.000       6.899
     281.41       1.732       2.494       1.593       0.693       0.346       0.000       6.928
     284.15       1.770       2.619       1.628       0.708       0.354       0.000       7.078
     285.00       1.781       2.636       1.639       0.713       0.356       0.000       7.125
     285.70       1.791       2.650       1.648       0.716       0.358       0.000       7.164
     285.85       1.793       2.654       1.650       0.717       0.359       0.000       7.172
     288.36       1.827       2.705       1.754       0.731       0.365       0.000       7.310
     289.17       1.839       2.721       1.765       0.662       0.368       0.000       7.354
     290.00       1.850       2.738       1.776       0.706       0.370       0.000       7.400
     290.69       1.853       2.742       1.778       0.740       0.371       0.000       7.410
     290.72       1.853       2.742       1.779       0.741       0.371       0.000       7.411
     291.63       1.856       2.747       1.782       0.742       0.371       0.000       7.424
     291.70       1.856       2.747       1.782       0.743       0.371       0.000       7.426
     292.00       1.858       2.749       1.783       0.743       0.372       0.000       7.430
     292.78       1.860       2.753       1.786       0.744       0.372       0.000       7.442
     292.83       1.861       2.754       1.786       0.744       0.372       0.000       7.442
     295.00       1.869       2.766       1.794       0.688       0.374       0.000       7.475
     295.57       1.871       2.769       1.796       0.674       0.374       0.000       7.484
     296.17       1.873       2.772       1.798       0.674       0.375       0.000       7.493
     296.19       1.873       2.772       1.798       0.674       0.374       0.000       7.493
     299.50       1.886       2.791       1.810       0.679       0.302       0.000       7.543
     300.00       1.888       2.794       1.812       0.680       0.302       0.000       7.550
     300.80       1.895       2.805       1.820       0.682       0.303       0.000       7.582
     303.31       1.920       2.842       1.843       0.691       0.307       0.000       7.681
     303.78       1.925       2.849       1.848       0.693       0.308       0.000       7.699
     303.80       1.925       2.849       1.848       0.693       0.307       0.000       7.700
     310.00       2.019       3.010       1.940       0.755       0.141       0.000       7.900
     315.00       2.099       3.149       2.019       0.807       0.001       0.000       8.075
     315.02       2.100       3.150       2.019       0.808       0.000       0.000       8.076
     315.05       2.100       3.150       2.019       0.808       0.000       0.000       8.077
     316.10       2.110       3.164       2.028       0.811       0.000       0.000       8.114
     316.20       2.110       3.166       2.029       0.812       0.000       0.000       8.117
     319.01       2.136       3.204       2.054       0.822       0.000       0.000       8.215
     319.83       2.143       3.215       2.061       0.824       0.000       0.000       8.244
     320.00       2.145       3.218       2.063       0.824       0.000       0.000       8.250
     320.56       2.150       3.229       2.067       0.823       0.000       0.000       8.270
     325.00       2.191       3.314       2.106       0.814       0.000       0.000       8.425
     330.00       2.236       3.411       2.150       0.803       0.000       0.000       8.600
     335.00       2.278       3.504       2.190       0.789       0.000       0.000       8.760
     335.05       2.278       3.505       2.190       0.789       0.000       0.000       8.762
     335.39       2.281       3.509       2.193       0.790       0.000       0.000       8.772
     335.41       2.281       3.509       2.193       0.790       0.000       0.000       8.773
     340.00       2.319       3.568       2.230       0.803       0.000       0.000       8.920
     345.00       2.362       3.634       2.271       0.818       0.000       0.000       9.085
     345.13       2.363       3.636       2.272       0.818       0.000       0.000       9.089
     345.74       2.368       3.644       2.277       0.820       0.000       0.000       9.109
     347.39       2.383       3.666       2.291       0.825       0.000       0.000       9.164
     347.42       2.383       3.666       2.291       0.825       0.000       0.000       9.165
     349.85       2.404       3.698       2.311       0.832       0.000       0.000       9.245
     350.00       2.405       3.700       2.313       0.833       0.000       0.000       9.250
     353.86       2.437       3.749       2.343       0.844       0.000       0.000       9.374
     356.01       2.455       3.777       2.361       0.850       0.000       0.000       9.442
     356.07       2.456       3.778       2.361       0.850       0.000       0.000       9.444
     360.00       2.488       3.828       2.392       0.861       0.000       0.000       9.570
     360.76       2.495       3.838       2.399       0.864       0.000       0.000       9.595
     360.80       2.495       3.839       2.399       0.864       0.000       0.000       9.596
     364.48       2.527       3.887       2.429       0.875       0.000       0.000       9.718
     364.80       2.529       3.891       2.432       0.876       0.000       0.000       9.728
     368.07       2.557       3.935       2.459       0.787       0.000       0.000       9.836
     370.00       2.574       3.966       2.475       0.786       0.000       0.000       9.900
     374.74       2.587       4.000       2.487       0.776       0.000       0.000       9.950
     380.00       2.652       4.116       2.550       0.780       0.000       0.000      10.200
     390.00       2.730       4.268       2.625       0.772       0.000       0.000      10.500
     399.82       3.062       4.822       2.944       0.831       0.000       0.000      11.777
     400.00       3.068       4.832       2.950       0.832       0.000       0.000      11.800
     401.14       3.044       4.799       2.927       0.822       0.000       0.000      11.709
     401.70       3.033       4.782       2.916       0.816       0.000       0.000      11.664
     401.94       3.028       4.774       2.911       0.815       0.000       0.000      11.645
     403.26       3.000       4.731       2.885       0.808       0.000       0.000      11.539
     405.00       2.964       4.674       2.850       0.798       0.000       0.000      11.400
     406.00       2.943       4.641       2.943       0.792       0.000       0.000      11.320
     407.00       2.922       4.608       2.922       0.787       0.000       0.000      11.240
     408.00       2.902       4.576       2.902       0.781       0.000       0.000      11.160
     409.00       2.881       4.543       2.881       0.776       0.000       0.000      11.080
     410.00       2.860       4.510       2.860       0.770       0.000       0.000      11.000
     411.00       2.867       4.411       2.867       0.772       0.000       0.000      11.028
     412.00       2.875       4.533       2.875       0.774       0.000       0.000      11.057
     413.00       2.882       4.545       2.882       0.776       0.000       0.000      11.085
     414.00       2.889       4.556       2.889       0.778       0.000       0.000      11.113
     415.00       2.897       4.568       2.897       0.780       0.000       0.000      11.142
     416.00       2.904       4.580       2.904       0.782       0.000       0.000      11.170
     417.00       2.913       4.593       2.913       0.784       0.000       0.000      11.203
     417.24       2.915       4.596       2.915       0.785       0.000       0.000      11.210
     417.71       2.919       4.602       2.919       0.786       0.000       0.000      11.226
     418.00       2.921       4.606       2.921       0.786       0.000       0.000      11.235
     419.00       2.930       4.732       2.930       0.789       0.000       0.000      11.267
     420.00       2.938       4.633       2.938       0.791       0.000       0.000      11.300
     421.00       2.943       4.641       2.943       0.792       0.000       0.000      11.320
     422.00       2.948       4.763       2.948       0.794       0.000       0.000      11.340
     423.00       2.954       4.771       2.954       0.795       0.000       0.000      11.360
     424.00       2.959       4.780       2.959       0.797       0.000       0.000      11.380
     425.00       2.964       4.788       2.964       0.798       0.000       0.000      11.400
     426.00       2.969       4.796       2.969       0.799       0.000       0.000      11.420
     427.00       2.974       4.805       2.974       0.801       0.000       0.000      11.440
     428.00       2.980       4.813       2.980       0.688       0.000       0.000      11.460
     429.00       2.985       4.822       2.985       0.689       0.000       0.000      11.480
     430.00       2.990       4.830       2.990       0.690       0.000       0.000      11.500
     430.47       2.988       4.826       2.988       0.689       0.000       0.000      11.492
     430.50       2.988       4.826       2.988       0.689       0.000       0.000      11.491
     431.00       2.985       4.822       2.985       0.689       0.000       0.000      11.482
     432.00       2.981       4.815       2.981       0.688       0.000       0.000      11.464
     433.00       2.976       4.807       2.976       0.687       0.000       0.000      11.446
     434.00       2.971       4.800       2.971       0.686       0.000       0.000      11.428
     435.00       2.967       4.792       2.967       0.685       0.000       0.000      11.410
     436.00       3.190       5.126       3.076       0.000       0.000       0.000      11.392
     436.10       3.189       5.126       3.075       0.000       0.000       0.000      11.390
     436.67       3.186       5.121       3.073       0.000       0.000       0.000      11.380
     436.70       3.188       5.123       3.074       0.000       0.000       0.000      11.385
     437.00       3.201       5.145       3.087       0.000       0.000       0.000      11.433
     438.00       3.247       5.218       3.131       0.000       0.000       0.000      11.595
     439.00       3.292       5.291       3.174       0.000       0.000       0.000      11.757
     440.00       3.337       5.364       3.218       0.000       0.000       0.000      11.919
     440.50       3.360       5.400       3.240       0.000       0.000       0.000      12.000
     441.00       3.274       5.262       3.157       0.000       0.000       0.000      11.694
     442.00       3.103       4.987       2.992       0.000       0.000       0.000      11.083
     442.30       3.052       4.905       2.943       0.000       0.000       0.000      10.900
     442.70       3.612       5.805       3.483       0.000       0.000       0.000      12.900
     443.00       3.491       5.610       3.366       0.000       0.000       0.000      12.467
     443.60       3.248       5.220       3.132       0.000       0.000       0.000      11.600
     444.00       3.211       5.160       3.096       0.000       0.000       0.000      11.467
     445.00       3.117       5.010       3.006       0.000       0.000       0.000      11.133
     445.10       3.108       4.995       2.997       0.000       0.000       0.000      11.100
     446.00       2.971       4.774       2.864       0.000       0.000       0.000      10.609
     446.20       2.940       4.725       2.835       0.000       0.000       0.000      10.500
     446.70       3.920       6.300       3.780       0.000       0.000       0.000      14.000
     447.00       3.743       6.015       3.609       0.000       0.000       0.000      13.367
     447.60       3.388       5.445       3.267       0.000       0.000       0.000      12.100
     448.00       3.276       5.265       3.159       0.000       0.000       0.000      11.700
     448.60       3.108       4.995       2.997       0.000       0.000       0.000      11.100
     449.00       3.122       5.017       3.010       0.000       0.000       0.000      11.150
     450.00       3.157       5.074       3.044       0.000       0.000       0.000      11.275
     450.20       3.164       5.085       3.051       0.000       0.000       0.000      11.300
     451.00       3.136       5.040       3.024       0.000       0.000       0.000      11.200
     452.00       3.101       4.984       2.990       0.000       0.000       0.000      11.075
     452.60       3.080       4.950       2.970       0.000       0.000       0.000      11.000
     453.00       3.014       4.844       2.906       0.000       0.000       0.000      10.765
     454.00       2.849       4.579       2.748       0.000       0.000       0.000      10.176
     454.30       2.800       4.470       2.700       0.000       0.000       0.000      10.000
     454.70       3.080       4.873       2.970       0.000       0.000       0.000      11.000
     455.00       3.572       5.613       3.444       0.000       0.000       0.000      12.757
     455.40       4.228       6.704       4.077       0.000       0.000       0.000      15.100
     456.00       3.877       6.230       3.738       0.000       0.000       0.000      13.845
     456.50       3.520       5.760       3.456       0.000       0.000       0.000      12.800
     457.00       3.406       5.677       3.406       0.000       0.000       0.000      12.615
     458.00       3.306       5.510       3.306       0.000       0.000       0.000      12.244
     459.00       3.206       5.343       3.206       0.000       0.000       0.000      11.874
     459.20       3.210       5.310       3.186       0.000       0.000       0.000      11.800
     460.00       3.309       5.318       3.191       0.000       0.000       0.000      11.817
     461.00       3.315       5.327       3.196       0.000       0.000       0.000      11.839
     462.00       3.321       5.337       3.202       0.000       0.000       0.000      11.860
     463.00       3.327       5.347       3.208       0.000       0.000       0.000      11.881
     464.00       3.333       5.356       3.214       0.000       0.000       0.000      11.903
     465.00       3.339       5.366       3.220       0.000       0.000       0.000      11.924
     465.22       3.340       5.368       3.221       0.000       0.000       0.000      11.929
     466.00       3.345       5.376       3.225       0.000       0.000       0.000      11.946
     467.00       3.351       5.385       3.231       0.000       0.000       0.000      11.967
     468.00       3.357       5.395       3.237       0.000       0.000       0.000      11.989
     469.00       3.363       5.405       3.243       0.000       0.000       0.000      12.010
     469.80       3.368       5.412       3.247       0.000       0.000       0.000      12.027
     470.00       3.369       5.414       3.248       0.000       0.000       0.000      12.031
     471.00       3.375       5.424       3.254       0.000       0.000       0.000      12.053
     472.00       3.381       5.433       3.260       0.000       0.000       0.000      12.074
     473.00       3.387       5.443       3.266       0.000       0.000       0.000      12.096
     473.20       3.388       5.445       3.267       0.000       0.000       0.000      12.100
     473.80       3.360       5.400       3.240       0.000       0.000       0.000      12.000
     474.00       3.351       5.385       3.231       0.000       0.000       0.000      11.967
     475.00       3.304       5.310       3.186       0.000       0.000       0.000      11.800
     475.90       3.220       5.175       3.105       0.000       0.000       0.000      11.500
     476.00       3.209       5.157       3.094       0.000       0.000       0.000      11.460
     476.40       3.164       5.085       3.051       0.000       0.000       0.000      11.300
     477.00       3.252       5.226       3.136       0.000       0.000       0.000      11.614
     478.00       3.399       5.462       3.277       0.000       0.000       0.000      12.138
     478.50       3.472       5.580       3.348       0.000       0.000       0.000      12.400
     479.00       3.453       5.550       3.330       0.000       0.000       0.000      12.333
     480.00       3.416       5.490       3.294       0.000       0.000       0.000      12.200
     480.80       4.508       7.245       4.347       0.000       0.000       0.000      16.100
     481.00       4.359       7.005       4.203       0.000       0.000       0.000      15.567
     481.70       3.836       6.165       3.699       0.000       0.000       0.000      13.700
     482.00       3.780       6.075       3.645       0.000       0.000       0.000      13.500
     482.10       3.761       6.045       3.627       0.000       0.000       0.000      13.433
     482.60       3.668       5.895       3.537       0.000       0.000       0.000      13.100
     483.00       3.652       5.869       3.522       0.000       0.000       0.000      13.043
     483.30       3.640       5.850       3.510       0.000       0.000       0.000      13.000
     484.00       3.626       5.827       3.497       0.000       0.000       0.000      12.950
     484.70       3.612       5.805       3.483       0.000       0.000       0.000      12.900
     485.00       3.601       5.787       3.472       0.000       0.000       0.000      12.861
     486.00       3.564       5.728       3.437       0.000       0.000       0.000      12.729
     486.60       3.542       5.692       3.415       0.000       0.000       0.000      12.650
     487.00       3.521       5.658       3.395       0.000       0.000       0.000      12.574
     488.00       3.467       5.572       3.343       0.000       0.000       0.000      12.382
     489.00       3.414       5.486       3.292       0.000       0.000       0.000      12.191
     489.50       3.387       5.443       3.266       0.000       0.000       0.000      12.096
     490.00       3.360       5.400       3.240       0.000       0.000       0.000      12.000
     491.00       3.404       5.471       3.283       0.000       0.000       0.000      12.159
     491.70       3.436       5.522       3.313       0.000       0.000       0.000      12.270
     492.00       3.432       5.515       3.309       0.000       0.000       0.000      12.257
     493.00       3.419       5.495       3.297       0.000       0.000       0.000      12.212
     494.00       3.407       5.475       3.285       0.000       0.000       0.000      12.167
     495.00       3.394       5.455       3.273       0.000       0.000       0.000      12.123
     496.00       3.382       5.435       3.261       0.000       0.000       0.000      12.078
     497.00       3.369       5.415       3.249       0.000       0.000       0.000      12.034
     498.00       3.357       5.395       3.237       0.000       0.000       0.000      11.989
     499.00       3.344       5.375       3.225       0.000       0.000       0.000      11.945
     499.27       3.341       5.370       3.222       0.000       0.000       0.000      11.933
     499.37       3.340       5.368       3.221       0.000       0.000       0.000      11.928
     500.00       3.332       5.355       3.213       0.000       0.000       0.000      11.900
     501.00       3.296       5.298       3.179       0.000       0.000       0.000      11.773
     501.10       3.293       5.292       3.175       0.000       0.000       0.000      11.760
     502.00       3.297       5.298       3.179       0.000       0.000       0.000      11.774
     503.00       3.301       5.305       3.183       0.000       0.000       0.000      11.790
     504.00       3.306       5.313       3.188       0.000       0.000       0.000      11.806
     505.00       3.310       5.320       3.192       0.000       0.000       0.000      11.821
     507.90       3.323       5.340       3.204       0.000       0.000       0.000      11.867
     507.93       3.323       5.340       3.204       0.000       0.000       0.000      11.867
     510.00       3.332       5.355       3.213       0.000       0.000       0.000      11.900
     515.60       3.348       5.380       3.228       0.000       0.000       0.000      11.956
     520.00       3.360       5.400       3.240       0.000       0.000       0.000      12.000
     520.66       3.362       5.403       3.242       0.000       0.000       0.000      12.007
     521.10       3.363       5.405       3.243       0.000       0.000       0.000      12.011
     525.80       3.376       5.426       3.256       0.000       0.000       0.000      12.058
     530.00       3.433       5.445       3.222       0.000       0.000       0.000      12.100
     537.02       3.550       5.508       3.183       0.000       0.000       0.000      12.240
     537.03       3.550       5.508       3.183       0.000       0.000       0.000      12.241
     540.00       3.567       5.535       3.198       0.000       0.000       0.000      12.300
     542.80       3.583       5.560       3.213       0.000       0.000       0.000      12.356
     544.70       3.594       5.577       3.222       0.000       0.000       0.000      12.394
     548.90       3.619       5.615       3.244       0.000       0.000       0.000      12.478
     550.00       3.625       5.625       3.250       0.000       0.000       0.000      12.500
     551.40       3.633       5.638       3.257       0.000       0.000       0.000      12.528
     554.37       3.650       5.664       3.273       0.000       0.000       0.000      12.587
     554.51       3.651       5.666       3.273       0.000       0.000       0.000      12.590
     555.60       3.657       5.675       3.279       0.000       0.000       0.000      12.612
     558.60       3.675       5.702       3.295       0.000       0.000       0.000      12.672
     560.00       3.683       5.715       3.302       0.000       0.000       0.000      12.700
     562.80       3.699       5.740       3.317       0.000       0.000       0.000      12.756
     565.00       3.712       5.760       3.328       0.000       0.000       0.000      12.800
     568.50       3.732       5.791       3.346       0.000       0.000       0.000      12.870
     570.00       3.741       5.805       3.354       0.000       0.000       0.000      12.900
     572.30       3.748       5.815       3.360       0.000       0.000       0.000      12.923
     575.00       3.755       5.782       3.412       0.000       0.000       0.000      12.950
     580.00       3.770       5.720       3.510       0.000       0.000       0.000      13.000
     580.40       3.785       5.750       3.473       0.000       0.000       0.000      13.008
     584.00       3.924       6.017       3.139       0.000       0.000       0.000      13.080
     584.33       3.915       6.020       3.152       0.000       0.000       0.000      13.087
     585.00       3.897       6.026       3.177       0.000       0.000       0.000      13.100
     585.80       3.876       6.033       3.207       0.000       0.000       0.000      13.116
     588.90       3.792       6.062       3.324       0.000       0.000       0.000      13.178
     590.00       3.762       6.072       3.366       0.000       0.000       0.000      13.200
     592.40       3.689       6.083       3.451       0.000       0.000       0.000      13.224
     594.10       3.638       6.091       3.512       0.000       0.000       0.000      13.241
     595.00       3.611       6.095       3.544       0.000       0.000       0.000      13.250
     596.70       3.559       6.103       3.605       0.000       0.000       0.000      13.267
     599.60       3.470       6.116       3.710       0.000       0.000       0.000      13.296
     600.00       3.458       6.118       3.724       0.000       0.000       0.000      13.300
     604.30       3.527       6.138       3.679       0.000       0.000       0.000      13.343
     608.00       3.586       6.155       3.639       0.000       0.000       0.000      13.380
     608.40       3.592       6.157       3.635       0.000       0.000       0.000      13.384
     608.90       3.600       6.159       3.630       0.000       0.000       0.000      13.389
     609.00       3.602       6.159       3.629       0.000       0.000       0.000      13.390
     609.70       3.613       6.163       3.621       0.000       0.000       0.000      13.397
     609.76       3.614       6.163       3.621       0.000       0.000       0.000      13.398
     609.80       3.615       6.163       3.620       0.000       0.000       0.000      13.398
     610.00       3.618       6.164       3.618       0.000       0.000       0.000      13.400
     610.70       3.627       6.164       3.609       0.000       0.000       0.000      13.400
     610.80       3.629       6.164       3.607       0.000       0.000       0.000      13.400
     610.90       3.630       6.164       3.606       0.000       0.000       0.000      13.400
     611.00       3.631       6.164       3.605       0.000       0.000       0.000      13.400
     612.00       3.645       6.164       3.591       0.000       0.000       0.000      13.400
     612.40       3.650       6.164       3.586       0.000       0.000       0.000      13.400
     612.70       3.654       6.164       3.582       0.000       0.000       0.000      13.400
     613.00       3.658       6.164       3.578       0.000       0.000       0.000      13.400
     613.10       3.660       6.164       3.576       0.000       0.000       0.000      13.400
     614.00       3.672       6.164       3.564       0.000       0.000       0.000      13.400
     615.00       3.685       6.164       3.551       0.000       0.000       0.000      13.400
     615.20       3.688       6.164       3.548       0.000       0.000       0.000      13.400
     616.00       3.698       6.164       3.538       0.000       0.000       0.000      13.400
     616.30       3.702       6.164       3.534       0.000       0.000       0.000      13.400
     616.60       3.706       6.164       3.530       0.000       0.000       0.000      13.400
     616.90       3.710       6.164       3.526       0.000       0.000       0.000      13.400
     617.00       3.712       6.164       3.524       0.000       0.000       0.000      13.400
     617.10       3.713       6.164       3.523       0.000       0.000       0.000      13.400
     617.70       3.721       6.164       3.515       0.000       0.000       0.000      13.400
     618.00       3.725       6.164       3.511       0.000       0.000       0.000      13.400
     618.20       3.728       6.164       3.508       0.000       0.000       0.000      13.400
     618.70       3.735       6.164       3.501       0.000       0.000       0.000      13.400
     618.80       3.736       6.164       3.500       0.000       0.000       0.000      13.400
     618.90       3.737       6.164       3.499       0.000       0.000       0.000      13.400
     619.00       3.739       6.164       3.497       0.000       0.000       0.000      13.400
     619.80       3.749       6.164       3.487       0.000       0.000       0.000      13.400
     620.00       3.752       6.164       3.484       0.000       0.000       0.000      13.400
     620.50       3.759       6.171       3.471       0.000       0.000       0.000      13.400
     621.00       3.765       6.177       3.457       0.000       0.000       0.000      13.400
     621.90       3.777       6.189       3.433       0.000       0.000       0.000      13.400
     622.00       3.779       6.191       3.430       0.000       0.000       0.000      13.400
     623.00       3.792       6.204       3.404       0.000       0.000       0.000      13.400
     623.10       3.794       6.206       3.401       0.000       0.000       0.000      13.400
     624.00       3.806       6.218       3.377       0.000       0.000       0.000      13.400
     624.10       3.807       6.219       3.374       0.000       0.000       0.000      13.400
     624.50       3.812       6.224       3.363       0.000       0.000       0.000      13.400
     624.60       3.814       6.226       3.361       0.000       0.000       0.000      13.400
     624.93       3.818       6.230       3.352       0.000       0.000       0.000      13.400
     625.00       3.819       6.231       3.350       0.000       0.000       0.000      13.400
     625.10       3.820       6.232       3.347       0.000       0.000       0.000      13.400
     625.90       3.831       6.243       3.326       0.000       0.000       0.000      13.400
     626.00       3.832       6.244       3.323       0.000       0.000       0.000      13.400
     626.60       3.840       6.252       3.307       0.000       0.000       0.000      13.400
     627.00       3.846       6.258       3.296       0.000       0.000       0.000      13.400
     627.10       3.847       6.259       3.294       0.000       0.000       0.000      13.400
     628.00       3.859       6.271       3.270       0.000       0.000       0.000      13.400
     629.00       3.873       6.285       3.243       0.000       0.000       0.000      13.400
     629.60       3.881       6.293       3.227       0.000       0.000       0.000      13.400
     629.70       3.882       6.294       3.224       0.000       0.000       0.000      13.400
     629.73       3.882       6.294       3.223       0.000       0.000       0.000      13.400
     630.00       3.886       6.298       3.216       0.000       0.000       0.000      13.400
     630.30       3.953       6.289       3.155       0.000       0.000       0.000      13.397
     631.00       4.111       6.267       3.013       0.000       0.000       0.000      13.390
     631.60       4.245       6.248       2.891       0.000       0.000       0.000      13.384
     632.00       4.335       6.235       2.810       0.000       0.000       0.000      13.380
     633.00       4.559       6.204       2.607       0.000       0.000       0.000      13.370
     634.00       4.783       6.172       2.405       0.000       0.000       0.000      13.360
     634.40       4.872       6.160       2.324       0.000       0.000       0.000      13.356
     634.70       4.939       6.150       2.263       0.000       0.000       0.000      13.353
     635.00       5.006       6.141       2.203       0.000       0.000       0.000      13.350
     635.80       5.185       6.116       2.041       0.000       0.000       0.000      13.342
     636.00       5.229       6.110       2.001       0.000       0.000       0.000      13.340
     636.30       5.296       6.100       1.941       0.000       0.000       0.000      13.337
     637.00       5.452       6.078       1.800       0.000       0.000       0.000      13.330
     637.30       5.519       6.069       1.739       0.000       0.000       0.000      13.327
     638.00       5.674       6.047       1.598       0.000       0.000       0.000      13.320
     638.10       5.697       6.044       1.578       0.000       0.000       0.000      13.319
     638.50       5.785       6.032       1.498       0.000       0.000       0.000      13.315
     638.70       5.830       6.025       1.458       0.000       0.000       0.000      13.313
     639.00       5.896       6.016       1.398       0.000       0.000       0.000      13.310
     640.00       6.118       5.985       1.197       0.000       0.000       0.000      13.300
     640.41       6.014       5.974       1.299       0.000       0.000       0.000      13.288
     640.93       5.883       5.960       1.429       0.000       0.000       0.000      13.272
     641.00       5.865       5.958       1.446       0.000       0.000       0.000      13.270
     641.81       5.661       5.937       1.648       0.000       0.000       0.000      13.246
     642.00       5.614       5.932       1.695       0.000       0.000       0.000      13.240
     642.50       5.488       5.918       1.818       0.000       0.000       0.000      13.225
     643.00       5.363       5.905       1.942       0.000       0.000       0.000      13.210
     644.00       5.114       5.878       2.188       0.000       0.000       0.000      13.180
     644.10       5.089       5.876       2.212       0.000       0.000       0.000      13.177
     644.20       5.064       5.873       2.237       0.000       0.000       0.000      13.174
     644.40       5.014       5.868       2.286       0.000       0.000       0.000      13.168
     645.00       4.866       5.852       2.433       0.000       0.000       0.000      13.150
     645.90       4.643       5.828       2.652       0.000       0.000       0.000      13.123
     646.00       4.618       5.825       2.676       0.000       0.000       0.000      13.120
     646.60       4.470       5.809       2.822       0.000       0.000       0.000      13.102
     646.70       4.446       5.807       2.846       0.000       0.000       0.000      13.099
     647.00       4.372       5.799       2.919       0.000       0.000       0.000      13.090
     647.50       4.249       5.786       3.040       0.000       0.000       0.000      13.075
     648.00       4.127       5.773       3.161       0.000       0.000       0.000      13.060
     649.00       3.883       5.746       3.401       0.000       0.000       0.000      13.030
     649.40       3.786       5.736       3.497       0.000       0.000       0.000      13.018
     650.00       3.640       5.720       3.640       0.000       0.000       0.000      13.000
     650.30       3.629       5.719       3.641       0.000       0.000       0.000      12.988
     651.00       3.603       5.715       3.642       0.000       0.000       0.000      12.960
     651.80       3.573       5.712       3.643       0.000       0.000       0.000      12.928
     652.00       3.566       5.711       3.643       0.000       0.000       0.000      12.920
     653.00       3.529       5.706       3.645       0.000       0.000       0.000      12.880
     654.00       3.492       5.701       3.647       0.000       0.000       0.000      12.840
     655.00       3.456       5.696       3.648       0.000       0.000       0.000      12.800
     656.00       3.420       5.691       3.649       0.000       0.000       0.000      12.760
     657.00       3.384       5.686       3.651       0.000       0.000       0.000      12.720
     657.30       3.373       5.684       3.651       0.000       0.000       0.000      12.708
     658.00       3.348       5.681       3.652       0.000       0.000       0.000      12.680
     659.00       3.312       5.675       3.653       0.000       0.000       0.000      12.640
     660.00       3.276       5.670       3.654       0.000       0.000       0.000      12.600
     660.30       3.312       5.647       3.599       0.000       0.000       0.000      12.566
     661.00       3.396       5.594       3.471       0.000       0.000       0.000      12.487
     661.40       3.444       5.564       3.399       0.000       0.000       0.000      12.442
     661.90       3.502       5.526       3.309       0.000       0.000       0.000      12.385
     662.00       3.514       5.519       3.291       0.000       0.000       0.000      12.374
     663.00       3.629       5.444       3.114       0.000       0.000       0.000      12.260
     664.00       3.741       5.369       2.940       0.000       0.000       0.000      12.147
     664.60       3.807       5.325       2.836       0.000       0.000       0.000      12.079
     664.90       3.840       5.302       2.785       0.000       0.000       0.000      12.045
     665.00       3.851       5.295       2.768       0.000       0.000       0.000      12.034
     665.30       4.164       5.784       1.932       0.000       0.000       0.000      12.000
     665.80       4.672       6.579       0.548       0.000       0.000       0.000      11.918
     666.00       4.873       6.893       0.000       0.000       0.000       0.000      11.885
     667.00       4.768       6.846       0.000       0.000       0.000       0.000      11.721
     667.30       4.736       6.832       0.000       0.000       0.000       0.000      11.672
     668.00       4.663       6.797       0.000       0.000       0.000       0.000      11.557
     669.00       4.560       6.747       0.000       0.000       0.000       0.000      11.393
     669.60       4.499       6.716       0.000       0.000       0.000       0.000      11.295
     670.00       4.458       6.696       0.000       0.000       0.000       0.000      11.230
     670.40       4.417       6.675       0.000       0.000       0.000       0.000      11.164
     670.50       4.407       6.669       0.000       0.000       0.000       0.000      11.148
     671.00       4.357       6.643       0.000       0.000       0.000       0.000      11.066
     671.50       4.307       6.616       0.000       0.000       0.000       0.000      10.984
     671.90       4.267       6.594       0.000       0.000       0.000       0.000      10.918
     672.00       4.257       6.589       0.000       0.000       0.000       0.000      10.902
     672.90       4.168       6.539       0.000       0.000       0.000       0.000      10.754
     673.00       4.158       6.533       0.000       0.000       0.000       0.000      10.738
     673.60       4.099       6.500       0.000       0.000       0.000       0.000      10.639
     673.80       4.080       6.488       0.000       0.000       0.000       0.000      10.607
     674.00       4.060       6.477       0.000       0.000       0.000       0.000      10.574
     674.40       4.021       6.454       0.000       0.000       0.000       0.000      10.508
     675.00       3.963       6.419       0.000       0.000       0.000       0.000      10.410
     675.20       3.944       6.407       0.000       0.000       0.000       0.000      10.377
     675.70       3.896       6.377       0.000       0.000       0.000       0.000      10.295
     676.00       3.868       6.359       0.000       0.000       0.000       0.000      10.246
     676.20       3.849       6.347       0.000       0.000       0.000       0.000      10.213
     676.60       3.811       6.323       0.000       0.000       0.000       0.000      10.148
     677.00       3.773       6.298       0.000       0.000       0.000       0.000      10.082
     677.50       3.726       6.267       0.000       0.000       0.000       0.000      10.000
     677.90       3.824       6.472       0.000       0.000       0.000       0.000      10.300
     678.00       3.849       6.524       0.000       0.000       0.000       0.000      10.375
     678.30       3.922       6.678       0.000       0.000       0.000       0.000      10.600
     678.80       3.960       8.040       0.000       0.000       0.000       0.000      12.000
     679.00       5.477      12.190       0.000       0.000       0.000       0.000      17.667
     679.10       6.150      14.350       0.000       0.000       0.000       0.000      20.500
     679.20       4.466      10.934       0.000       0.000       0.000       0.000      15.400
     679.90       4.432      10.093       0.000       0.000       0.000       0.000      14.525
     680.00       4.424       9.976       0.000       0.000       0.000       0.000      14.400
     680.20       4.409       9.741       0.000       0.000       0.000       0.000      14.150
     680.40       4.391       9.509       0.000       0.000       0.000       0.000      13.900
     680.70       4.606       9.684       0.000       0.000       0.000       0.000      14.290
     681.00       4.827       9.853       0.000       0.000       0.000       0.000      14.680
     681.10       4.902       9.908       0.000       0.000       0.000       0.000      14.810
     681.30       5.053      10.017       0.000       0.000       0.000       0.000      15.070
     681.40       5.129      10.071       0.000       0.000       0.000       0.000      15.200
     681.60       4.926       9.487       0.000       0.000       0.000       0.000      14.413
     681.70       4.822       9.198       0.000       0.000       0.000       0.000      14.019
     682.00       4.499       8.340       0.000       0.000       0.000       0.000      12.839
     682.30       4.160       7.498       0.000       0.000       0.000       0.000      11.658
     682.80       3.562       6.128       0.000       0.000       0.000       0.000       9.690
     683.00       3.589       6.061       0.000       0.000       0.000       0.000       9.650
     683.30       3.601       5.915       0.000       0.000       0.000       0.000       9.517
     683.80       3.618       5.677       0.000       0.000       0.000       0.000       9.294
     683.90       3.620       5.630       0.000       0.000       0.000       0.000       9.250
     684.00       3.684       5.678       0.000       0.000       0.000       0.000       9.362
     684.30       3.880       5.820       0.000       0.000       0.000       0.000       9.700
     684.50       3.917       6.283       0.000       0.000       0.000       0.000      10.200
     684.80       4.032       7.168       0.000       0.000       0.000       0.000      11.200
     684.90       4.578       8.548       0.000       0.000       0.000       0.000      13.126
     685.00       5.079       9.971       0.000       0.000       0.000       0.000      15.050
     685.50       6.940      17.736       0.000       0.000       0.000       0.000      24.675
     685.60       7.182      19.418       0.000       0.000       0.000       0.000      26.600
     685.71       6.939      18.550       0.000       0.000       0.000       0.000      25.490
     685.80       6.737      17.845       0.000       0.000       0.000       0.000      24.582
     686.00       6.275      16.288       0.000       0.000       0.000       0.000      22.564
     686.10       6.039      15.516       0.000       0.000       0.000       0.000      21.555
     686.30       5.553      13.984       0.000       0.000       0.000       0.000      19.536
     686.60       4.793      11.717       0.000       0.000       0.000       0.000      16.509
     686.70       4.531      10.969       0.000       0.000       0.000       0.000      15.500
     687.00       3.984       9.366       0.000       0.000       0.000       0.000      13.350
     687.30       3.411       7.789       0.000       0.000       0.000       0.000      11.200
     687.90       3.951       8.524       0.000       0.000       0.000       0.000      12.475
     688.00       4.044       8.643       0.000       0.000       0.000       0.000      12.688
     688.10       4.138       8.762       0.000       0.000       0.000       0.000      12.900
     688.40       4.057       8.354       0.000       0.000       0.000       0.000      12.410
     688.70       3.969       7.952       0.000       0.000       0.000       0.000      11.921
     689.00       3.876       7.556       0.000       0.000       0.000       0.000      11.432
     689.10       3.844       7.425       0.000       0.000       0.000       0.000      11.268
     690.00       3.522       6.278       0.000       0.000       0.000       0.000       9.800
     690.10       3.522       6.223       0.000       0.000       0.000       0.000       9.745
     690.60       3.519       5.951       0.000       0.000       0.000       0.000       9.470
     690.80       3.559       5.916       0.000       0.000       0.000       0.000       9.475
     691.00       3.599       5.881       0.000       0.000       0.000       0.000       9.480
     691.20       3.640       5.845       0.000       0.000       0.000       0.000       9.485
     691.30       3.660       5.827       0.000       0.000       0.000       0.000       9.488
     691.40       3.680       5.810       0.000       0.000       0.000       0.000       9.490
     692.00       3.802       5.703       0.000       0.000       0.000       0.000       9.505
     692.20       3.814       5.696       0.000       0.000       0.000       0.000       9.510
     692.30       3.830       5.710       0.000       0.000       0.000       0.000       9.540
     692.40       3.847       5.723       0.000       0.000       0.000       0.000       9.570
     692.50       3.864       5.736       0.000       0.000       0.000       0.000       9.600
     692.70       3.836       5.671       0.000       0.000       0.000       0.000       9.508
     693.00       3.795       5.575       0.000       0.000       0.000       0.000       9.369
     693.80       3.681       5.319       0.000       0.000       0.000       0.000       9.000
     694.00       3.693       5.315       0.000       0.000       0.000       0.000       9.008
     694.30       3.712       5.308       0.000       0.000       0.000       0.000       9.020
     694.90       3.749       5.295       0.000       0.000       0.000       0.000       9.044
     695.00       3.755       5.293       0.000       0.000       0.000       0.000       9.048
     695.20       3.767       5.289       0.000       0.000       0.000       0.000       9.056
     695.30       3.773       5.287       0.000       0.000       0.000       0.000       9.060
     696.00       3.741       5.167       0.000       0.000       0.000       0.000       8.908
     696.50       3.960       4.840       0.000       0.000       0.000       0.000       8.800
     697.00       3.238       6.125       0.000       0.000       0.000       0.000       9.363
     697.30       2.748       6.952       0.000       0.000       0.000       0.000       9.700
     697.50       9.667      30.333       0.000       0.000       0.000       0.000      40.000
     697.70       7.417      29.668       0.000       0.000       0.000       0.000      37.086
     698.00       7.652      25.062       0.000       0.000       0.000       0.000      32.714
     698.30       7.591      20.752       0.000       0.000       0.000       0.000      28.343
     698.90       6.579      13.021       0.000       0.000       0.000       0.000      19.600
     699.00       6.562      12.351       0.000       0.000       0.000       0.000      18.914
     699.40       6.340       9.826       0.000       0.000       0.000       0.000      16.167
     699.60       6.136       8.658       0.000       0.000       0.000       0.000      14.794
     699.70       6.011       8.096       0.000       0.000       0.000       0.000      14.107
     700.00       5.542       6.505       0.000       0.000       0.000       0.000      12.047
     700.30       4.564       5.423       0.000       0.000       0.000       0.000       9.987
     700.40       4.241       5.059       0.000       0.000       0.000       0.000       9.300
     700.80       3.819       4.631       0.000       0.000       0.000       0.000       8.450
     701.00       3.611       4.414       0.000       0.000       0.000       0.000       8.025
     701.20       3.405       4.195       0.000       0.000       0.000       0.000       7.600
     701.60       5.239       6.561       0.000       0.000       0.000       0.000      11.800
     701.80       6.144       7.756       0.000       0.000       0.000       0.000      13.900
     702.00       5.978       7.609       0.000       0.000       0.000       0.000      13.587
     703.00       5.169       6.852       0.000       0.000       0.000       0.000      12.022
     703.10       5.090       6.775       0.000       0.000       0.000       0.000      11.865
     703.36       4.886       6.572       0.000       0.000       0.000       0.000      11.458
     703.60       4.699       6.384       0.000       0.000       0.000       0.000      11.083
     704.00       4.392       6.065       0.000       0.000       0.000       0.000      10.456
     704.10       4.316       5.984       0.000       0.000       0.000       0.000      10.300
     704.50       4.145       5.843       0.000       0.000       0.000       0.000       9.989
     705.00       3.936       5.664       0.000       0.000       0.000       0.000       9.600
     705.30       3.963       5.674       0.000       0.000       0.000       0.000       9.637
     705.90       4.016       5.694       0.000       0.000       0.000       0.000       9.710
     706.00       4.024       5.696       0.000       0.000       0.000       0.000       9.720
     706.60       4.072       5.708       0.000       0.000       0.000       0.000       9.780
     707.00       4.105       5.715       0.000       0.000       0.000       0.000       9.820
     707.60       4.154       5.726       0.000       0.000       0.000       0.000       9.880
     707.90       4.152       5.696       0.000       0.000       0.000       0.000       9.848
     708.00       4.151       5.686       0.000       0.000       0.000       0.000       9.837
     708.90       4.146       5.596       0.000       0.000       0.000       0.000       9.742
     709.00       4.146       5.586       0.000       0.000       0.000       0.000       9.731
     709.20       4.144       5.566       0.000       0.000       0.000       0.000       9.710
     709.30       4.118       5.522       0.000       0.000       0.000       0.000       9.640
     709.70       4.014       5.346       0.000       0.000       0.000       0.000       9.360
     710.00       3.934       5.215       0.000       0.000       0.000       0.000       9.150
     710.80       4.029       5.271       0.000       0.000       0.000       0.000       9.300
     711.00       4.034       5.261       0.000       0.000       0.000       0.000       9.295
     711.90       4.058       5.216       0.000       0.000       0.000       0.000       9.274
     712.00       4.061       5.211       0.000       0.000       0.000       0.000       9.272
     712.50       4.074       5.186       0.000       0.000       0.000       0.000       9.260
     712.70       4.077       5.173       0.000       0.000       0.000       0.000       9.250
     712.90       4.080       5.160       0.000       0.000       0.000       0.000       9.240
     713.00       4.082       5.153       0.000       0.000       0.000       0.000       9.235
     713.50       4.089       5.121       0.000       0.000       0.000       0.000       9.210
     713.90       4.095       5.095       0.000       0.000       0.000       0.000       9.190
     714.00       4.097       5.088       0.000       0.000       0.000       0.000       9.185
     714.10       4.098       5.082       0.000       0.000       0.000       0.000       9.180
     714.70       4.130       5.072       0.000       0.000       0.000       0.000       9.203
     715.00       4.146       5.068       0.000       0.000       0.000       0.000       9.214
     715.60       4.178       5.058       0.000       0.000       0.000       0.000       9.236
     715.70       4.184       5.056       0.000       0.000       0.000       0.000       9.240
     716.00       4.163       5.006       0.000       0.000       0.000       0.000       9.169
     716.50       4.127       4.923       0.000       0.000       0.000       0.000       9.051
     717.00       4.091       4.841       0.000       0.000       0.000       0.000       8.932
     717.20       4.076       4.808       0.000       0.000       0.000       0.000       8.885
     717.60       4.047       4.743       0.000       0.000       0.000       0.000       8.790
     718.00       4.085       4.757       0.000       0.000       0.000       0.000       8.843
     718.10       4.095       4.761       0.000       0.000       0.000       0.000       8.856
     718.50       4.133       4.775       0.000       0.000       0.000       0.000       8.908
     719.00       4.182       4.792       0.000       0.000       0.000       0.000       8.974
     719.20       4.201       4.799       0.000       0.000       0.000       0.000       9.000
     719.40       4.208       4.792       0.000       0.000       0.000       0.000       9.000
     720.00       4.230       4.770       0.000       0.000       0.000       0.000       9.000
     720.40       4.104       4.856       0.000       0.000       0.000       0.000       8.960
     720.90       3.947       4.963       0.000       0.000       0.000       0.000       8.910
     721.00       3.923       4.993       0.000       0.000       0.000       0.000       8.917
     721.30       3.852       5.085       0.000       0.000       0.000       0.000       8.937
     721.40       3.828       5.116       0.000       0.000       0.000       0.000       8.944
     721.80       3.732       5.240       0.000       0.000       0.000       0.000       8.972
     722.00       3.684       5.302       0.000       0.000       0.000       0.000       8.986
     722.50       3.563       5.457       0.000       0.000       0.000       0.000       9.020
     722.60       3.524       5.466       0.000       0.000       0.000       0.000       8.990
     722.90       3.409       5.491       0.000       0.000       0.000       0.000       8.900
     723.00       3.371       5.499       0.000       0.000       0.000       0.000       8.870
     723.40       3.605       5.145       0.000       0.000       0.000       0.000       8.750
     723.50       3.662       5.058       0.000       0.000       0.000       0.000       8.720
     723.90       3.681       4.919       0.000       0.000       0.000       0.000       8.600
     724.00       6.149       8.151       0.000       0.000       0.000       0.000      14.300
     724.20       9.715      16.386       0.000       0.000       0.000       0.000      26.101
     724.80      12.232      49.268       0.000       0.000       0.000       0.000      61.500
     724.90       9.231      45.069       0.000       0.000       0.000       0.000      54.300
     725.00       8.859      42.042       0.000       0.000       0.000       0.000      50.901
     725.10       8.460      39.042       0.000       0.000       0.000       0.000      47.502
     725.50       6.586      27.314       0.000       0.000       0.000       0.000      33.901
     725.70       5.484      21.616       0.000       0.000       0.000       0.000      27.100
     726.00       5.163      18.904       0.000       0.000       0.000       0.000      24.067
     726.40       4.619      15.403       0.000       0.000       0.000       0.000      20.022
     727.00       3.558      10.397       0.000       0.000       0.000       0.000      13.956
     727.30       2.917       8.005       0.000       0.000       0.000       0.000      10.922
     727.50       2.449       6.451       0.000       0.000       0.000       0.000       8.900
     727.60       2.490       6.428       0.000       0.000       0.000       0.000       8.918
     728.00       2.656       6.334       0.000       0.000       0.000       0.000       8.990
     728.30       2.782       6.262       0.000       0.000       0.000       0.000       9.044
     728.70       2.951       6.165       0.000       0.000       0.000       0.000       9.116
     729.00       3.080       6.090       0.000       0.000       0.000       0.000       9.170
     729.40       3.161       5.817       0.000       0.000       0.000       0.000       8.977
     729.80       3.235       5.550       0.000       0.000       0.000       0.000       8.785
     730.00       3.270       5.419       0.000       0.000       0.000       0.000       8.689
     730.60       3.365       5.035       0.000       0.000       0.000       0.000       8.400
     730.90       3.439       4.892       0.000       0.000       0.000       0.000       8.331
     731.00       3.463       4.845       0.000       0.000       0.000       0.000       8.307
     731.10       3.487       4.798       0.000       0.000       0.000       0.000       8.284
     731.50       3.580       4.612       0.000       0.000       0.000       0.000       8.192
     731.80       3.649       4.474       0.000       0.000       0.000       0.000       8.123
     731.82       3.653       4.465       0.000       0.000       0.000       0.000       8.118
     732.00       8.076       0.000       0.000       0.000       0.000       0.000       8.076
     732.20       8.030       0.000       0.000       0.000       0.000       0.000       8.030
     732.50       6.972       0.000       0.000       0.000       0.000       0.000       6.972
     733.00       5.208       0.000       0.000       0.000       0.000       0.000       5.208
     733.30       4.150       0.000       0.000       0.000       0.000       0.000       4.150
     734.00       8.618       0.000       0.000       0.000       0.000       0.000       8.618
     734.50      11.809       0.000       0.000       0.000       0.000       0.000      11.809
     735.00      15.000       0.000       0.000       0.000       0.000       0.000      15.000
     735.30      15.337       0.000       0.000       0.000       0.000       0.000      15.337
     735.90      16.013       0.000       0.000       0.000       0.000       0.000      16.013
     736.00      16.125       0.000       0.000       0.000       0.000       0.000      16.125
     736.50      16.688       0.000       0.000       0.000       0.000       0.000      16.688
     736.60      16.800       0.000       0.000       0.000       0.000       0.000      16.800
     737.00      10.400       0.000       0.000       0.000       0.000       0.000      10.400
     737.20      12.300       0.000       0.000       0.000       0.000       0.000      12.300
     737.50      15.150       0.000       0.000       0.000       0.000       0.000      15.150
     737.60      16.100       0.000       0.000       0.000       0.000       0.000      16.100
     738.00      12.500       0.000       0.000       0.000       0.000       0.000      12.500
     738.40       8.900       0.000       0.000       0.000       0.000       0.000       8.900
     739.00      14.375       0.000       0.000       0.000       0.000       0.000      14.375
     739.20      16.200       0.000       0.000       0.000       0.000       0.000      16.200
     739.30      15.310       0.000       0.000       0.000       0.000       0.000      15.310
     740.00       9.080       0.000       0.000       0.000       0.000       0.000       9.080
     740.20       7.300       0.000       0.000       0.000       0.000       0.000       7.300
     740.30       8.689       0.000       0.000       0.000       0.000       0.000       8.689
     741.00      18.411       0.000       0.000       0.000       0.000       0.000      18.411
     741.10      19.800       0.000       0.000       0.000       0.000       0.000      19.800
     741.20      18.907       0.000       0.000       0.000       0.000       0.000      18.907
     742.00      11.769       0.000       0.000       0.000       0.000       0.000      11.769
     742.20       9.985       0.000       0.000       0.000       0.000       0.000       9.985
     742.40       8.200       0.000       0.000       0.000       0.000       0.000       8.200
     743.00       6.333       0.000       0.000       0.000       0.000       0.000       6.333
     743.20       5.711       0.000       0.000       0.000       0.000       0.000       5.711
     743.30       5.400       0.000       0.000       0.000       0.000       0.000       5.400
     743.50      10.075       0.000       0.000       0.000       0.000       0.000      10.075
     743.70      14.751       0.000       0.000       0.000       0.000       0.000      14.751
     744.00      21.763       0.000       0.000       0.000       0.000       0.000      21.763
     744.10      24.100       0.000       0.000       0.000       0.000       0.000      24.100
     744.50      17.100       0.000       0.000       0.000       0.000       0.000      17.100
     744.90      10.100       0.000       0.000       0.000       0.000       0.000      10.100
     745.00       9.675       0.000       0.000       0.000       0.000       0.000       9.675
     745.10       9.250       0.000       0.000       0.000       0.000       0.000       9.250
     746.00       5.425       0.000       0.000       0.000       0.000       0.000       5.425
     746.10       5.000       0.000       0.000       0.000       0.000       0.000       5.000
     746.40       4.850       0.000       0.000       0.000       0.000       0.000       4.850
     746.70       4.700       0.000       0.000       0.000       0.000       0.000       4.700
     747.00       5.487       0.000       0.000       0.000       0.000       0.000       5.487
     747.50       6.800       0.000       0.000       0.000       0.000       0.000       6.800
     747.60       9.459       0.000       0.000       0.000       0.000       0.000       9.459
     748.00      20.100       0.000       0.000       0.000       0.000       0.000      20.100
     748.50      33.400       0.000       0.000       0.000       0.000       0.000      33.400
     749.00      20.329       0.000       0.000       0.000       0.000       0.000      20.329
     749.20      15.100       0.000       0.000       0.000       0.000       0.000      15.100
     750.00       9.820       0.000       0.000       0.000       0.000       0.000       9.820
     750.01       9.754       0.000       0.000       0.000       0.000       0.000       9.754
     750.70       5.200       0.000       0.000       0.000       0.000       0.000       5.200
     751.00       5.003       0.000       0.000       0.000       0.000       0.000       5.003
     751.60       4.609       0.000       0.000       0.000       0.000       0.000       4.609
     752.00       4.347       0.000       0.000       0.000       0.000       0.000       4.347
     752.30       4.150       0.000       0.000       0.000       0.000       0.000       4.150
     752.90       4.364       0.000       0.000       0.000       0.000       0.000       4.364
     753.00       4.400       0.000       0.000       0.000       0.000       0.000       4.400
     754.00       4.757       0.000       0.000       0.000       0.000       0.000       4.757
     754.40       4.900       0.000       0.000       0.000       0.000       0.000       4.900
     754.50       7.807       0.000       0.000       0.000       0.000       0.000       7.807
     755.00      22.343       0.000       0.000       0.000       0.000       0.000      22.343
     755.20      28.157       0.000       0.000       0.000       0.000       0.000      28.157
     755.50      36.879       0.000       0.000       0.000       0.000       0.000      36.879
     755.80      45.600       0.000       0.000       0.000       0.000       0.000      45.600
     756.00      40.185       0.000       0.000       0.000       0.000       0.000      40.185
     756.20      34.771       0.000       0.000       0.000       0.000       0.000      34.771
     756.50      26.650       0.000       0.000       0.000       0.000       0.000      26.650
     757.00      13.115       0.000       0.000       0.000       0.000       0.000      13.115
     757.20       7.700       0.000       0.000       0.000       0.000       0.000       7.700
     757.50       9.575       0.000       0.000       0.000       0.000       0.000       9.575
     757.70      10.825       0.000       0.000       0.000       0.000       0.000      10.825
     758.00      12.700       0.000       0.000       0.000       0.000       0.000      12.700
     758.30      11.380       0.000       0.000       0.000       0.000       0.000      11.380
     758.40      10.940       0.000       0.000       0.000       0.000       0.000      10.940
     758.50      10.500       0.000       0.000       0.000       0.000       0.000      10.500
     758.68       9.708       0.000       0.000       0.000       0.000       0.000       9.708
     758.70       9.620       0.000       0.000       0.000       0.000       0.000       9.620
     759.00       8.300       0.000       0.000       0.000       0.000       0.000       8.300
     759.40       6.540       0.000       0.000       0.000       0.000       0.000       6.540
     759.44       6.364       0.000       0.000       0.000       0.000       0.000       6.364
     759.50       6.100       0.000       0.000       0.000       0.000       0.000       6.100
     760.00       3.900       0.000       0.000       0.000       0.000       0.000       3.900
     760.20       4.045       0.000       0.000       0.000       0.000       0.000       4.045
     760.22       4.060       0.000       0.000       0.000       0.000       0.000       4.060
     760.30       4.059       0.000       0.000       0.000       0.000       0.000       4.059
     760.40       4.058       0.000       0.000       0.000       0.000       0.000       4.058
     760.50       4.056       0.000       0.000       0.000       0.000       0.000       4.056
     760.70       4.054       0.000       0.000       0.000       0.000       0.000       4.054
     761.00       4.050       0.000       0.000       0.000       0.000       0.000       4.050
     761.10       4.049       0.000       0.000       0.000       0.000       0.000       4.049
     761.13       4.049       0.000       0.000       0.000       0.000       0.000       4.049
     761.20       4.048       0.000       0.000       0.000       0.000       0.000       4.048
     761.50       4.044       0.000       0.000       0.000       0.000       0.000       4.044
     762.00       4.038       0.000       0.000       0.000       0.000       0.000       4.038
     762.00       4.038       0.000       0.000       0.000       0.000       0.000       4.038
     762.01       4.038       0.000       0.000       0.000       0.000       0.000       4.038
     762.10       4.036       0.000       0.000       0.000       0.000       0.000       4.036
     762.20       4.035       0.000       0.000       0.000       0.000       0.000       4.035
     762.50       4.031       0.000       0.000       0.000       0.000       0.000       4.031
     763.00       4.025       0.000       0.000       0.000       0.000       0.000       4.025
     763.20       4.023       0.000       0.000       0.000       0.000       0.000       4.023
     763.30       4.021       0.000       0.000       0.000       0.000       0.000       4.021
     763.50       4.019       0.000       0.000       0.000       0.000       0.000       4.019
     763.70       4.016       0.000       0.000       0.000       0.000       0.000       4.016
     764.00       4.013       0.000       0.000       0.000       0.000       0.000       4.013
     764.40       4.008       0.000       0.000       0.000       0.000       0.000       4.008
     764.50       4.006       0.000       0.000       0.000       0.000       0.000       4.006
     764.60       4.005       0.000       0.000       0.000       0.000       0.000       4.005
     764.70       4.004       0.000       0.000       0.000       0.000       0.000       4.004
     765.00       4.000       0.000       0.000       0.000       0.000       0.000       4.000
     765.10       3.998       0.000       0.000       0.000       0.000       0.000       3.998
     765.15       3.997       0.000       0.000       0.000       0.000       0.000       3.997
     765.30       3.994       0.000       0.000       0.000       0.000       0.000       3.994
     765.40       3.992       0.000       0.000       0.000       0.000       0.000       3.992
     765.50       3.990       0.000       0.000       0.000       0.000       0.000       3.990
     765.70       3.986       0.000       0.000       0.000       0.000       0.000       3.986
     766.00       3.980       0.000       0.000       0.000       0.000       0.000       3.980
     766.50       3.970       0.000       0.000       0.000       0.000       0.000       3.970
     766.70       3.966       0.000       0.000       0.000       0.000       0.000       3.966
     767.00       3.960       0.000       0.000       0.000       0.000       0.000       3.960
     767.10       3.958       0.000       0.000       0.000       0.000       0.000       3.958
     767.30       3.954       0.000       0.000       0.000       0.000       0.000       3.954
     767.50       3.950       0.000       0.000       0.000       0.000       0.000       3.950
     767.70       3.946       0.000       0.000       0.000       0.000       0.000       3.946
     767.90       3.942       0.000       0.000       0.000       0.000       0.000       3.942
     768.00       3.940       0.000       0.000       0.000       0.000       0.000       3.940
     768.30       3.934       0.000       0.000       0.000       0.000       0.000       3.934
     768.40       3.932       0.000       0.000       0.000       0.000       0.000       3.932
     768.50       3.930       0.000       0.000       0.000       0.000       0.000       3.930
     768.70       3.926       0.000       0.000       0.000       0.000       0.000       3.926
     768.80       3.924       0.000       0.000       0.000       0.000       0.000       3.924
     769.00       3.920       0.000       0.000       0.000       0.000       0.000       3.920
     769.20       3.916       0.000       0.000       0.000       0.000       0.000       3.916
     769.50       3.910       0.000       0.000       0.000       0.000       0.000       3.910
     769.60       3.908       0.000       0.000       0.000       0.000       0.000       3.908
     770.00       3.900       0.000       0.000       0.000       0.000       0.000       3.900
     770.20       3.896       0.000       0.000       0.000       0.000       0.000       3.896
     770.40       3.892       0.000       0.000       0.000       0.000       0.000       3.892
     770.41       3.892       0.000       0.000       0.000       0.000       0.000       3.892
     770.50       3.890       0.000       0.000       0.000       0.000       0.000       3.890
     770.80       3.884       0.000       0.000       0.000       0.000       0.000       3.884
     771.00       3.880       0.000       0.000       0.000       0.000       0.000       3.880
     771.50       3.870       0.000       0.000       0.000       0.000       0.000       3.870
     771.60       3.868       0.000       0.000       0.000       0.000       0.000       3.868
     772.00       3.860       0.000       0.000       0.000       0.000       0.000       3.860
     772.40       3.852       0.000       0.000       0.000       0.000       0.000       3.852
     772.50       3.850       0.000       0.000       0.000       0.000       0.000       3.850
     773.00       3.840       0.000       0.000       0.000       0.000       0.000       3.840
     773.10       3.838       0.000       0.000       0.000       0.000       0.000       3.838
     773.50       3.830       0.000       0.000       0.000       0.000       0.000       3.830
     774.00       3.820       0.000       0.000       0.000       0.000       0.000       3.820
     774.50       3.810       0.000       0.000       0.000       0.000       0.000       3.810
     775.00       3.800       0.000       0.000       0.000       0.000       0.000       3.800
     775.10       3.798       0.000       0.000       0.000       0.000       0.000       3.798
     775.50       3.790       0.000       0.000       0.000       0.000       0.000       3.790
     775.70       3.786       0.000       0.000       0.000       0.000       0.000       3.786
     775.80       3.784       0.000       0.000       0.000       0.000       0.000       3.784
     776.00       3.780       0.000       0.000       0.000       0.000       0.000       3.780
     776.00       3.780       0.000       0.000       0.000       0.000       0.000       3.780
     776.01       3.780       0.000       0.000       0.000       0.000       0.000       3.780
     776.50       3.770       0.000       0.000       0.000       0.000       0.000       3.770
     777.00       3.760       0.000       0.000       0.000       0.000       0.000       3.760
     777.50       3.750       0.000       0.000       0.000       0.000       0.000       3.750
     778.00       3.740       0.000       0.000       0.000       0.000       0.000       3.740
     778.10       3.738       0.000       0.000       0.000       0.000       0.000       3.738
     778.50       3.730       0.000       0.000       0.000       0.000       0.000       3.730
     778.70       3.726       0.000       0.000       0.000       0.000       0.000       3.726
     778.80       3.724       0.000       0.000       0.000       0.000       0.000       3.724
     778.80       3.724       0.000       0.000       0.000       0.000       0.000       3.724
     779.00       3.720       0.000       0.000       0.000       0.000       0.000       3.720
     779.50       3.710       0.000       0.000       0.000       0.000       0.000       3.710
     779.80       3.704       0.000       0.000       0.000       0.000       0.000       3.704
     779.90       3.702       0.000       0.000       0.000       0.000       0.000       3.702
     780.00       3.700       0.000       0.000       0.000       0.000       0.000       3.700
     780.30       3.700       0.000       0.000       0.000       0.000       0.000       3.700
     780.32       3.700       0.000       0.000       0.000       0.000       0.000       3.700
     780.50       3.700       0.000       0.000       0.000       0.000       0.000       3.700
     781.00       3.700       0.000       0.000       0.000       0.000       0.000       3.700
     781.20       3.700       0.000       0.000       0.000       0.000       0.000       3.700
     781.50       3.700       0.000       0.000       0.000       0.000       0.000       3.700
     782.00       3.700       0.000       0.000       0.000       0.000       0.000       3.700
     782.50       3.700       0.000       0.000       0.000       0.000       0.000       3.700
     782.90       3.700       0.000       0.000       0.000       0.000       0.000       3.700
     783.00       3.700       0.000       0.000       0.000       0.000       0.000       3.700
     783.20       3.700       0.000       0.000       0.000       0.000       0.000       3.700
     783.50       3.700       0.000       0.000       0.000       0.000       0.000       3.700
     783.80       3.700       0.000       0.000       0.000       0.000       0.000       3.700
     784.00       3.700       0.000       0.000       0.000       0.000       0.000       3.700
     784.40       3.700       0.000       0.000       0.000       0.000       0.000       3.700
     784.50       3.700       0.000       0.000       0.000       0.000       0.000       3.700
     784.80       3.700       0.000       0.000       0.000       0.000       0.000       3.700
     785.00       3.700       0.000       0.000       0.000       0.000       0.000       3.700
     785.50       3.706       0.000       0.000       0.000       0.000       0.000       3.706
     786.00       3.713       0.000       0.000       0.000       0.000       0.000       3.713
     786.20       3.715       0.000       0.000       0.000       0.000       0.000       3.715
     786.40       3.718       0.000       0.000       0.000       0.000       0.000       3.718
     786.47       3.718       0.000       0.000       0.000       0.000       0.000       3.718
     786.48       3.718       0.000       0.000       0.000       0.000       0.000       3.718
     786.50       3.719       0.000       0.000       0.000       0.000       0.000       3.719
     787.00       3.725       0.000       0.000       0.000       0.000       0.000       3.725
     787.50       3.731       0.000       0.000       0.000       0.000       0.000       3.731
     787.60       3.732       0.000       0.000       0.000       0.000       0.000       3.732
     787.70       3.734       0.000       0.000       0.000       0.000       0.000       3.734
     787.71       3.734       0.000       0.000       0.000       0.000       0.000       3.734
     788.00       3.737       0.000       0.000       0.000       0.000       0.000       3.737
     788.50       3.744       0.000       0.000       0.000       0.000       0.000       3.744
     788.60       3.745       0.000       0.000       0.000       0.000       0.000       3.745
     789.00       3.750       0.000       0.000       0.000       0.000       0.000       3.750
     789.50       3.756       0.000       0.000       0.000       0.000       0.000       3.756
     790.00       3.762       0.000       0.000       0.000       0.000       0.000       3.762
     790.10       3.764       0.000       0.000       0.000       0.000       0.000       3.764
     790.15       3.764       0.000       0.000       0.000       0.000       0.000       3.764
     790.20       3.765       0.000       0.000       0.000       0.000       0.000       3.765
     790.21       3.765       0.000       0.000       0.000       0.000       0.000       3.765
     790.50       3.769       0.000       0.000       0.000       0.000       0.000       3.769
     790.80       3.772       0.000       0.000       0.000       0.000       0.000       3.772
     791.00       3.775       0.000       0.000       0.000       0.000       0.000       3.775
     791.30       3.779       0.000       0.000       0.000       0.000       0.000       3.779
     791.40       3.780       0.000       0.000       0.000       0.000       0.000       3.780
     791.47      10.790       0.000       0.000       0.000       0.000       0.000      10.790
     791.50     100.282       0.000       0.000       0.000       0.000       0.000     100.282
     791.51     124.110       0.000       0.000       0.000       0.000       0.000     124.110
     791.55      16.730       0.000       0.000       0.000       0.000       0.000      16.730
     791.60       5.340       0.000       0.000       0.000       0.000       0.000       5.340
     791.80       4.226       0.000       0.000       0.000       0.000       0.000       4.226
     791.88       3.780       0.000       0.000       0.000       0.000       0.000       3.780
     791.93      36.690       0.000       0.000       0.000       0.000       0.000      36.690
     791.97     277.870       0.000       0.000       0.000       0.000       0.000     277.870
     792.00      14.030       0.000       0.000       0.000       0.000       0.000      14.030
     792.08       2.700       0.000       0.000       0.000       0.000       0.000       2.700
     792.17       5.400       0.000       0.000       0.000       0.000       0.000       5.400
     792.20      18.890       0.000       0.000       0.000       0.000       0.000      18.890
     792.23      51.260       0.000       0.000       0.000       0.000       0.000      51.260
     792.27       6.480       0.000       0.000       0.000       0.000       0.000       6.480
     792.40       3.780       0.000       0.000       0.000       0.000       0.000       3.780
     792.47      16.190       0.000       0.000       0.000       0.000       0.000      16.190
     792.50      37.090       0.000       0.000       0.000       0.000       0.000      37.090
     792.50      37.770       0.000       0.000       0.000       0.000       0.000      37.770
     792.53      10.800       0.000       0.000       0.000       0.000       0.000      10.800
     792.80       4.860       0.000       0.000       0.000       0.000       0.000       4.860
     792.92      19.970       0.000       0.000       0.000       0.000       0.000      19.970
     792.97      60.440       0.000       0.000       0.000       0.000       0.000      60.440
     793.00      32.643       0.000       0.000       0.000       0.000       0.000      32.643
     793.03       8.090       0.000       0.000       0.000       0.000       0.000       8.090
     793.14       2.700       0.000       0.000       0.000       0.000       0.000       2.700
     793.50       2.742       0.000       0.000       0.000       0.000       0.000       2.742
     794.00       2.800       0.000       0.000       0.000       0.000       0.000       2.800
     794.10       2.811       0.000       0.000       0.000       0.000       0.000       2.811
     794.50       2.858       0.000       0.000       0.000       0.000       0.000       2.858
     795.00       2.916       0.000       0.000       0.000       0.000       0.000       2.916
     795.10       2.927       0.000       0.000       0.000       0.000       0.000       2.927
     795.20       2.939       0.000       0.000       0.000       0.000       0.000       2.939
     796.00       3.032       0.000       0.000       0.000       0.000       0.000       3.032
     797.00       3.148       0.000       0.000       0.000       0.000       0.000       3.148
     797.70       3.229       0.000       0.000       0.000       0.000       0.000       3.229
     798.00       3.264       0.000       0.000       0.000       0.000       0.000       3.264
     798.10       3.275       0.000       0.000       0.000       0.000       0.000       3.275
     799.00       3.380       0.000       0.000       0.000       0.000       0.000       3.380
     799.50       3.438       0.000       0.000       0.000       0.000       0.000       3.438
     800.00       3.496       0.000       0.000       0.000       0.000       0.000       3.496
     800.50       3.554       0.000       0.000       0.000       0.000       0.000       3.554
     801.00       3.612       0.000       0.000       0.000       0.000       0.000       3.612
     801.50       3.670       0.000       0.000       0.000       0.000       0.000       3.670
     801.60       3.682       0.000       0.000       0.000       0.000       0.000       3.682
     802.00       3.728       0.000       0.000       0.000       0.000       0.000       3.728
     802.60       3.798       0.000       0.000       0.000       0.000       0.000       3.798
     803.00       3.844       0.000       0.000       0.000       0.000       0.000       3.844
     803.50       3.902       0.000       0.000       0.000       0.000       0.000       3.902
     804.00       3.960       0.000       0.000       0.000       0.000       0.000       3.960
     804.27      36.410       0.000       0.000       0.000       0.000       0.000      36.410
     804.38       9.140       0.000       0.000       0.000       0.000       0.000       9.140
     804.50       5.340       0.000       0.000       0.000       0.000       0.000       5.340
     804.78      48.940       0.000       0.000       0.000       0.000       0.000      48.940
     804.85      56.230       0.000       0.000       0.000       0.000       0.000      56.230
     805.00       7.200       0.000       0.000       0.000       0.000       0.000       7.200
     805.10       2.830       0.000       0.000       0.000       0.000       0.000       2.830
     805.29      11.730       0.000       0.000       0.000       0.000       0.000      11.730
     805.44       3.640       0.000       0.000       0.000       0.000       0.000       3.640
     805.50       2.510       0.000       0.000       0.000       0.000       0.000       2.510
     805.74      15.370       0.000       0.000       0.000       0.000       0.000      15.370
     805.77      18.610       0.000       0.000       0.000       0.000       0.000      18.610
     805.80      20.424       0.000       0.000       0.000       0.000       0.000      20.424
     805.81      21.030       0.000       0.000       0.000       0.000       0.000      21.030
     806.00       3.640       0.000       0.000       0.000       0.000       0.000       3.640
     806.23       5.910       0.000       0.000       0.000       0.000       0.000       5.910
     806.42       1.620       0.000       0.000       0.000       0.000       0.000       1.620
     806.49       2.020       0.000       0.000       0.000       0.000       0.000       2.020
     806.50       2.021       0.000       0.000       0.000       0.000       0.000       2.021
     806.60       2.028       0.000       0.000       0.000       0.000       0.000       2.028
     807.00       2.057       0.000       0.000       0.000       0.000       0.000       2.057
     808.00       2.129       0.000       0.000       0.000       0.000       0.000       2.129
     808.20       2.144       0.000       0.000       0.000       0.000       0.000       2.144
     808.50       2.165       0.000       0.000       0.000       0.000       0.000       2.165
     808.80       2.187       0.000       0.000       0.000       0.000       0.000       2.187
     809.00       2.202       0.000       0.000       0.000       0.000       0.000       2.202
     809.30       2.223       0.000       0.000       0.000       0.000       0.000       2.223
     809.50       2.238       0.000       0.000       0.000       0.000       0.000       2.238
     810.00       2.274       0.000       0.000       0.000       0.000       0.000       2.274
     810.50       2.310       0.000       0.000       0.000       0.000       0.000       2.310
     810.66      15.230       0.000       0.000       0.000       0.000       0.000      15.230
     810.85       2.820       0.000       0.000       0.000       0.000       0.000       2.820
     811.00      32.623       0.000       0.000       0.000       0.000       0.000      32.623
     811.05      42.760       0.000       0.000       0.000       0.000       0.000      42.760
     811.26       3.390       0.000       0.000       0.000       0.000       0.000       3.390
     811.49       7.900       0.000       0.000       0.000       0.000       0.000       7.900
     811.61       4.740       0.000       0.000       0.000       0.000       0.000       4.740
     811.70       6.600       0.000       0.000       0.000       0.000       0.000       6.600
     811.80       2.796       0.000       0.000       0.000       0.000       0.000       2.796
     811.81       2.430       0.000       0.000       0.000       0.000       0.000       2.430
     812.00       3.670       0.000       0.000       0.000       0.000       0.000       3.670
     812.09      11.170       0.000       0.000       0.000       0.000       0.000      11.170
     812.15      13.540       0.000       0.000       0.000       0.000       0.000      13.540
     812.27       3.950       0.000       0.000       0.000       0.000       0.000       3.950
     812.50       1.970       0.000       0.000       0.000       0.000       0.000       1.970
     812.80       2.215       0.000       0.000       0.000       0.000       0.000       2.215
     813.00       2.378       0.000       0.000       0.000       0.000       0.000       2.378
     813.50       2.786       0.000       0.000       0.000       0.000       0.000       2.786
     813.70       2.950       0.000       0.000       0.000       0.000       0.000       2.950
     814.00       3.194       0.000       0.000       0.000       0.000       0.000       3.194
     814.50       3.603       0.000       0.000       0.000       0.000       0.000       3.603
     814.90       3.929       0.000       0.000       0.000       0.000       0.000       3.929
     815.00       4.011       0.000       0.000       0.000       0.000       0.000       4.011
     815.50       4.419       0.000       0.000       0.000       0.000       0.000       4.419
     816.00       4.827       0.000       0.000       0.000       0.000       0.000       4.827
     816.42       5.170       0.000       0.000       0.000       0.000       0.000       5.170
     816.50       5.270       0.000       0.000       0.000       0.000       0.000       5.270
     816.77      65.140       0.000       0.000       0.000       0.000       0.000      65.140
     816.86      79.310       0.000       0.000       0.000       0.000       0.000      79.310
     817.00       4.140       0.000       0.000       0.000       0.000       0.000       4.140
     817.19       1.860       0.000       0.000       0.000       0.000       0.000       1.860
     817.20       1.900       0.000       0.000       0.000       0.000       0.000       1.900
     817.50       3.100       0.000       0.000       0.000       0.000       0.000       3.100
     817.58       4.960       0.000       0.000       0.000       0.000       0.000       4.960
     817.78      22.020       0.000       0.000       0.000       0.000       0.000      22.020
     817.84      20.060       0.000       0.000       0.000       0.000       0.000      20.060
     818.00       2.590       0.000       0.000       0.000       0.000       0.000       2.590
     818.20       7.403       0.000       0.000       0.000       0.000       0.000       7.403
     818.24       8.270       0.000       0.000       0.000       0.000       0.000       8.270
     818.34       1.960       0.000       0.000       0.000       0.000       0.000       1.960
     818.50       1.550       0.000       0.000       0.000       0.000       0.000       1.550
     819.00       1.685       0.000       0.000       0.000       0.000       0.000       1.685
     819.50       1.819       0.000       0.000       0.000       0.000       0.000       1.819
     819.80       1.900       0.000       0.000       0.000       0.000       0.000       1.900
     820.00       1.954       0.000       0.000       0.000       0.000       0.000       1.954
     820.50       2.088       0.000       0.000       0.000       0.000       0.000       2.088
     821.00       2.223       0.000       0.000       0.000       0.000       0.000       2.223
     821.30       2.304       0.000       0.000       0.000       0.000       0.000       2.304
     821.50       2.358       0.000       0.000       0.000       0.000       0.000       2.358
     822.00       2.492       0.000       0.000       0.000       0.000       0.000       2.492
     823.00       2.762       0.000       0.000       0.000       0.000       0.000       2.762
     823.20       2.815       0.000       0.000       0.000       0.000       0.000       2.815
     824.00       3.031       0.000       0.000       0.000       0.000       0.000       3.031
     824.10       3.058       0.000       0.000       0.000       0.000       0.000       3.058
     824.50       3.165       0.000       0.000       0.000       0.000       0.000       3.165
     824.90       3.273       0.000       0.000       0.000       0.000       0.000       3.273
     825.00       3.300       0.000       0.000       0.000       0.000       0.000       3.300
     825.30       3.300       0.000       0.000       0.000       0.000       0.000       3.300
     825.50       3.300       0.000       0.000       0.000       0.000       0.000       3.300
     826.00       3.300       0.000       0.000       0.000       0.000       0.000       3.300
     826.50       3.300       0.000       0.000       0.000       0.000       0.000       3.300
     826.80       3.300       0.000       0.000       0.000       0.000       0.000       3.300
     827.00       3.300       0.000       0.000       0.000       0.000       0.000       3.300
     827.50       3.300       0.000       0.000       0.000       0.000       0.000       3.300
     827.80       3.300       0.000       0.000       0.000       0.000       0.000       3.300
     828.00       3.300       0.000       0.000       0.000       0.000       0.000       3.300
     828.30       3.300       0.000       0.000       0.000       0.000       0.000       3.300
     829.00       3.300       0.000       0.000       0.000       0.000       0.000       3.300
     829.40       3.300       0.000       0.000       0.000       0.000       0.000       3.300
     829.60       3.300       0.000       0.000       0.000       0.000       0.000       3.300
     829.80       3.300       0.000       0.000       0.000       0.000       0.000       3.300
     830.00       3.300       0.000       0.000       0.000       0.000       0.000       3.300
     831.00       3.300       0.000       0.000       0.000       0.000       0.000       3.300
     832.00       3.300       0.000       0.000       0.000       0.000       0.000       3.300
     832.50       3.300       0.000       0.000       0.000       0.000       0.000       3.300
     832.80       3.300       0.000       0.000       0.000       0.000       0.000       3.300
     832.90       3.300       0.000       0.000       0.000       0.000       0.000       3.300
     833.00       3.300       0.000       0.000       0.000       0.000       0.000       3.300
     833.50       3.300       0.000       0.000       0.000       0.000       0.000       3.300
     833.70       3.300       0.000       0.000       0.000       0.000       0.000       3.300
     834.00       3.300       0.000       0.000       0.000       0.000       0.000       3.300
     834.10       3.300       0.000       0.000       0.000       0.000       0.000       3.300
     834.20       3.300       0.000       0.000       0.000       0.000       0.000       3.300
     834.50       3.300       0.000       0.000       0.000       0.000       0.000       3.300
     835.00       3.300       0.000       0.000       0.000       0.000       0.000       3.300
     835.10       3.300       0.000       0.000       0.000       0.000       0.000       3.300
     835.20       3.300       0.000       0.000       0.000       0.000       0.000       3.300
     835.30       3.300       0.000       0.000       0.000       0.000       0.000       3.300
     835.40       3.300       0.000       0.000       0.000       0.000       0.000       3.300
     836.00       3.300       0.000       0.000       0.000       0.000       0.000       3.300
     836.30       3.300       0.000       0.000       0.000       0.000       0.000       3.300
     837.00       3.300       0.000       0.000       0.000       0.000       0.000       3.300
     837.50       3.300       0.000       0.000       0.000       0.000       0.000       3.300
     837.80       3.300       0.000       0.000       0.000       0.000       0.000       3.300
     838.00       3.300       0.000       0.000       0.000       0.000       0.000       3.300
     838.60       3.300       0.000       0.000       0.000       0.000       0.000       3.300
     838.60       3.300       0.000       0.000       0.000       0.000       0.000       3.300
     838.90       3.300       0.000       0.000       0.000       0.000       0.000       3.300
     839.00       3.300       0.000       0.000       0.000       0.000       0.000       3.300
     839.10       3.300       0.000       0.000       0.000       0.000       0.000       3.300
     840.00       3.300       0.000       0.000       0.000       0.000       0.000       3.300
     840.50       3.295       0.000       0.000       0.000       0.000       0.000       3.295
     840.70       3.293       0.000       0.000       0.000       0.000       0.000       3.293
     841.00       3.290       0.000       0.000       0.000       0.000       0.000       3.290
     841.50       3.285       0.000       0.000       0.000       0.000       0.000       3.285
     842.00       3.280       0.000       0.000       0.000       0.000       0.000       3.280
     842.10       3.279       0.000       0.000       0.000       0.000       0.000       3.279
     842.50       3.275       0.000       0.000       0.000       0.000       0.000       3.275
     843.00       3.270       0.000       0.000       0.000       0.000       0.000       3.270
     843.50       3.265       0.000       0.000       0.000       0.000       0.000       3.265
     843.80       3.262       0.000       0.000       0.000       0.000       0.000       3.262
     844.00       3.260       0.000       0.000       0.000       0.000       0.000       3.260
     844.50       3.255       0.000       0.000       0.000       0.000       0.000       3.255
     844.60       3.254       0.000       0.000       0.000       0.000       0.000       3.254
     845.00       3.250       0.000       0.000       0.000       0.000       0.000       3.250
     845.50       3.245       0.000       0.000       0.000       0.000       0.000       3.245
     845.90       3.241       0.000       0.000       0.000       0.000       0.000       3.241
     846.00       3.240       0.000       0.000       0.000       0.000       0.000       3.240
     847.00       3.230       0.000       0.000       0.000       0.000       0.000       3.230
     847.60       3.224       0.000       0.000       0.000       0.000       0.000       3.224
     848.00       3.220       0.000       0.000       0.000       0.000       0.000       3.220
     848.50       3.215       0.000       0.000       0.000       0.000       0.000       3.215
     849.00       3.210       0.000       0.000       0.000       0.000       0.000       3.210
     849.20       3.208       0.000       0.000       0.000       0.000       0.000       3.208
     849.50       3.205       0.000       0.000       0.000       0.000       0.000       3.205
     850.00       3.200       0.000       0.000       0.000       0.000       0.000       3.200
     850.60       3.188       0.000       0.000       0.000       0.000       0.000       3.188
     851.00       3.180       0.000       0.000       0.000       0.000       0.000       3.180
     851.50       3.170       0.000       0.000       0.000       0.000       0.000       3.170
     851.80       3.164       0.000       0.000       0.000       0.000       0.000       3.164
     852.00       3.160       0.000       0.000       0.000       0.000       0.000       3.160
     852.19       3.156       0.000       0.000       0.000       0.000       0.000       3.156
     852.50       3.150       0.000       0.000       0.000       0.000       0.000       3.150
     853.00       3.140       0.000       0.000       0.000       0.000       0.000       3.140
     853.20       3.136       0.000       0.000       0.000       0.000       0.000       3.136
     853.50       3.130       0.000       0.000       0.000       0.000       0.000       3.130
     854.00       3.120       0.000       0.000       0.000       0.000       0.000       3.120
     854.50       3.110       0.000       0.000       0.000       0.000       0.000       3.110
     855.00       3.100       0.000       0.000       0.000       0.000       0.000       3.100
     855.50       3.100       0.000       0.000       0.000       0.000       0.000       3.100
     856.00       3.100       0.000       0.000       0.000       0.000       0.000       3.100
     856.20       3.100       0.000       0.000       0.000       0.000       0.000       3.100
     856.50       3.100       0.000       0.000       0.000       0.000       0.000       3.100
     857.00       3.100       0.000       0.000       0.000       0.000       0.000       3.100
     857.30       3.100       0.000       0.000       0.000       0.000       0.000       3.100
     857.70       3.100       0.000       0.000       0.000       0.000       0.000       3.100
     858.00       3.100       0.000       0.000       0.000       0.000       0.000       3.100
     858.50       3.100       0.000       0.000       0.000       0.000       0.000       3.100
     859.00       3.100       0.000       0.000       0.000       0.000       0.000       3.100
     859.20       3.100       0.000       0.000       0.000       0.000       0.000       3.100
     860.00       3.100       0.000       0.000       0.000       0.000       0.000       3.100
     860.40       3.100       0.000       0.000       0.000       0.000       0.000       3.100
     860.50       3.100       0.000       0.000       0.000       0.000       0.000       3.100
     861.00       3.100       0.000       0.000       0.000       0.000       0.000       3.100
     861.50       3.100       0.000       0.000       0.000       0.000       0.000       3.100
     862.00       3.100       0.000       0.000       0.000       0.000       0.000       3.100
     863.00       3.100       0.000       0.000       0.000       0.000       0.000       3.100
     863.20       3.100       0.000       0.000       0.000       0.000       0.000       3.100
     864.00       3.100       0.000       0.000       0.000       0.000       0.000       3.100
     864.60       3.100       0.000       0.000       0.000       0.000       0.000       3.100
     865.00       3.100       0.000       0.000       0.000       0.000       0.000       3.100
     865.20       3.100       0.000       0.000       0.000       0.000       0.000       3.100
     865.40       3.100       0.000       0.000       0.000       0.000       0.000       3.100
     865.50       3.100       0.000       0.000       0.000       0.000       0.000       3.100
     866.00       3.100       0.000       0.000       0.000       0.000       0.000       3.100
     866.50       3.100       0.000       0.000       0.000       0.000       0.000       3.100
     867.00       3.100       0.000       0.000       0.000       0.000       0.000       3.100
     867.50       3.100       0.000       0.000       0.000       0.000       0.000       3.100
     867.60       3.100       0.000       0.000       0.000       0.000       0.000       3.100
     868.00       3.100       0.000       0.000       0.000       0.000       0.000       3.100
     868.50       3.100       0.000       0.000       0.000       0.000       0.000       3.100
     869.00       3.100       0.000       0.000       0.000       0.000       0.000       3.100
     869.50       3.100       0.000       0.000       0.000       0.000       0.000       3.100
     870.00       3.100       0.000       0.000       0.000       0.000       0.000       3.100
     870.80       3.768       0.000       0.000       0.000       0.000       0.000       3.768
     871.00       3.936       0.000       0.000       0.000       0.000       0.000       3.936
     871.40       4.270       0.000       0.000       0.000       0.000       0.000       4.270
     871.50       4.353       0.000       0.000       0.000       0.000       0.000       4.353
     872.00       4.771       0.000       0.000       0.000       0.000       0.000       4.771
     872.50       5.189       0.000       0.000       0.000       0.000       0.000       5.189
     873.00       5.607       0.000       0.000       0.000       0.000       0.000       5.607
     873.50       6.024       0.000       0.000       0.000       0.000       0.000       6.024
     874.00       6.442       0.000       0.000       0.000       0.000       0.000       6.442
     874.50       6.860       0.000       0.000       0.000       0.000       0.000       6.860
     875.00       7.278       0.000       0.000       0.000       0.000       0.000       7.278
     875.20       7.445       0.000       0.000       0.000       0.000       0.000       7.445
     875.50       7.695       0.000       0.000       0.000       0.000       0.000       7.695
     876.00       8.113       0.000       0.000       0.000       0.000       0.000       8.113
     876.20       8.280       0.000       0.000       0.000       0.000       0.000       8.280
     876.50       8.531       0.000       0.000       0.000       0.000       0.000       8.531
     877.00       8.949       0.000       0.000       0.000       0.000       0.000       8.949
     877.50       9.366       0.000       0.000       0.000       0.000       0.000       9.366
     877.60       9.450       0.000       0.000       0.000       0.000       0.000       9.450
     877.72      11.820       0.000       0.000       0.000       0.000       0.000      11.820
     877.80     210.350       0.000       0.000       0.000       0.000       0.000     210.350
     877.84      42.540       0.000       0.000       0.000       0.000       0.000      42.540
     877.88     241.080       0.000       0.000       0.000       0.000       0.000     241.080
     877.94      14.650       0.000       0.000       0.000       0.000       0.000      14.650
     878.00      10.400       0.000       0.000       0.000       0.000       0.000      10.400
     878.02      52.470       0.000       0.000       0.000       0.000       0.000      52.470
     878.07      69.960       0.000       0.000       0.000       0.000       0.000      69.960
     878.09      16.540       0.000       0.000       0.000       0.000       0.000      16.540
     878.10      20.285       0.000       0.000       0.000       0.000       0.000      20.285
     878.19      53.420       0.000       0.000       0.000       0.000       0.000      53.420
     878.50      34.882       0.000       0.000       0.000       0.000       0.000      34.882
     878.92       9.930       0.000       0.000       0.000       0.000       0.000       9.930
     878.96      55.780       0.000       0.000       0.000       0.000       0.000      55.780
     879.00      47.276       0.000       0.000       0.000       0.000       0.000      47.276
     879.20       4.730       0.000       0.000       0.000       0.000       0.000       4.730
     879.50       6.812       0.000       0.000       0.000       0.000       0.000       6.812
     879.54       7.090       0.000       0.000       0.000       0.000       0.000       7.090
     879.60      63.810       0.000       0.000       0.000       0.000       0.000      63.810
     879.63      19.850       0.000       0.000       0.000       0.000       0.000      19.850
     879.80       5.200       0.000       0.000       0.000       0.000       0.000       5.200
     880.00       5.110       0.000       0.000       0.000       0.000       0.000       5.110
     880.50       4.884       0.000       0.000       0.000       0.000       0.000       4.884
     881.00       4.658       0.000       0.000       0.000       0.000       0.000       4.658
     881.50       4.432       0.000       0.000       0.000       0.000       0.000       4.432
     882.00       4.206       0.000       0.000       0.000       0.000       0.000       4.206
     882.50       3.980       0.000       0.000       0.000       0.000       0.000       3.980
     882.70       3.889       0.000       0.000       0.000       0.000       0.000       3.889
     883.00       3.754       0.000       0.000       0.000       0.000       0.000       3.754
     883.30       3.618       0.000       0.000       0.000       0.000       0.000       3.618
     883.50       3.528       0.000       0.000       0.000       0.000       0.000       3.528
     884.00       3.302       0.000       0.000       0.000       0.000       0.000       3.302
     884.50       3.076       0.000       0.000       0.000       0.000       0.000       3.076
     885.00       2.850       0.000       0.000       0.000       0.000       0.000       2.850
     885.50       2.835       0.000       0.000       0.000       0.000       0.000       2.835
     885.80       2.826       0.000       0.000       0.000       0.000       0.000       2.826
     886.00       2.820       0.000       0.000       0.000       0.000       0.000       2.820
     886.50       2.805       0.000       0.000       0.000       0.000       0.000       2.805
     886.90       2.793       0.000       0.000       0.000       0.000       0.000       2.793
     887.00       2.790       0.000       0.000       0.000       0.000       0.000       2.790
     887.50       2.775       0.000       0.000       0.000       0.000       0.000       2.775
     888.00       2.760       0.000       0.000       0.000       0.000       0.000       2.760
     888.50       2.745       0.000       0.000       0.000       0.000       0.000       2.745
     889.00       2.730       0.000       0.000       0.000       0.000       0.000       2.730
     889.10       2.727       0.000       0.000       0.000       0.000       0.000       2.727
     889.50       2.715       0.000       0.000       0.000       0.000       0.000       2.715
     890.00       2.700       0.000       0.000       0.000       0.000       0.000       2.700
     890.50       2.705       0.000       0.000       0.000       0.000       0.000       2.705
     891.00       2.710       0.000       0.000       0.000       0.000       0.000       2.710
     891.10       2.711       0.000       0.000       0.000       0.000       0.000       2.711
     891.50       2.715       0.000       0.000       0.000       0.000       0.000       2.715
     892.00       2.720       0.000       0.000       0.000       0.000       0.000       2.720
     892.50       2.725       0.000       0.000       0.000       0.000       0.000       2.725
     893.00       2.730       0.000       0.000       0.000       0.000       0.000       2.730
     893.10       2.731       0.000       0.000       0.000       0.000       0.000       2.731
     893.50       2.735       0.000       0.000       0.000       0.000       0.000       2.735
     894.00       2.740       0.000       0.000       0.000       0.000       0.000       2.740
     894.50       2.745       0.000       0.000       0.000       0.000       0.000       2.745
     894.70       2.747       0.000       0.000       0.000       0.000       0.000       2.747
     895.00       2.750       0.000       0.000       0.000       0.000       0.000       2.750
     895.50       2.760       0.000       0.000       0.000       0.000       0.000       2.760
     895.80       2.766       0.000       0.000       0.000       0.000       0.000       2.766
     896.00       2.770       0.000       0.000       0.000       0.000       0.000       2.770
     896.50       2.780       0.000       0.000       0.000       0.000       0.000       2.780
     897.00       2.790       0.000       0.000       0.000       0.000       0.000       2.790
     897.20       2.794       0.000       0.000       0.000       0.000       0.000       2.794
     897.30       2.796       0.000       0.000       0.000       0.000       0.000       2.796
     897.50       2.800       0.000       0.000       0.000       0.000       0.000       2.800
     898.00       2.810       0.000       0.000       0.000       0.000       0.000       2.810
     898.50       2.820       0.000       0.000       0.000       0.000       0.000       2.820
     898.70       2.824       0.000       0.000       0.000       0.000       0.000       2.824
     899.00       2.830       0.000       0.000       0.000       0.000       0.000       2.830
     899.50       2.840       0.000       0.000       0.000       0.000       0.000       2.840
     900.00       2.850       0.000       0.000       0.000       0.000       0.000       2.850
     900.20       2.846       0.000       0.000       0.000       0.000       0.000       2.846
     900.50       2.840       0.000       0.000       0.000       0.000       0.000       2.840
     901.00       2.830       0.000       0.000       0.000       0.000       0.000       2.830
     901.10       2.828       0.000       0.000       0.000       0.000       0.000       2.828
     901.30       2.824       0.000       0.000       0.000       0.000       0.000       2.824
     901.50       2.820       0.000       0.000       0.000       0.000       0.000       2.820
     902.00       2.810       0.000       0.000       0.000       0.000       0.000       2.810
     903.00       2.790       0.000       0.000       0.000       0.000       0.000       2.790
     903.50       2.780       0.000       0.000       0.000       0.000       0.000       2.780
     903.80       2.774       0.000       0.000       0.000       0.000       0.000       2.774
     904.00       2.770       0.000       0.000       0.000       0.000       0.000       2.770
     904.10       2.768       0.000       0.000       0.000       0.000       0.000       2.768
     904.50       2.760       0.000       0.000       0.000       0.000       0.000       2.760
     905.00       2.750       0.000       0.000       0.000       0.000       0.000       2.750
     905.50       2.750       0.000       0.000       0.000       0.000       0.000       2.750
     906.00       2.750       0.000       0.000       0.000       0.000       0.000       2.750
     906.40       2.750       0.000       0.000       0.000       0.000       0.000       2.750
     906.50       2.750       0.000       0.000       0.000       0.000       0.000       2.750
     907.00       2.750       0.000       0.000       0.000       0.000       0.000       2.750
     907.40       2.750       0.000       0.000       0.000       0.000       0.000       2.750
     907.50       2.750       0.000       0.000       0.000       0.000       0.000       2.750
     908.00       2.685       0.000       0.000       0.000       0.000       0.000       2.685
     908.50       2.620       0.000       0.000       0.000       0.000       0.000       2.620
     909.00       2.554       0.000       0.000       0.000       0.000       0.000       2.554
     909.50       2.489       0.000       0.000       0.000       0.000       0.000       2.489
     909.60       2.476       0.000       0.000       0.000       0.000       0.000       2.476
     909.80       2.450       0.000       0.000       0.000       0.000       0.000       2.450
     910.00       1.150       0.000       0.000       0.000       0.000       0.000       1.150
     910.40       0.750       0.000       0.000       0.000       0.000       0.000       0.750
     910.44       0.710       0.000       0.000       0.000       0.000       0.000       0.710
     910.50       0.687       0.000       0.000       0.000       0.000       0.000       0.687
     910.60       0.648       0.000       0.000       0.000       0.000       0.000       0.648
     911.00       0.494       0.000       0.000       0.000       0.000       0.000       0.494
     911.50       0.300       0.000       0.000       0.000       0.000       0.000       0.300
     911.76       0.200       0.000       0.000       0.000       0.000       0.000       0.200
     912.00       0.140       0.000       0.000       0.000       0.000       0.000       0.140
     912.32       0.060       0.000       0.000       0.000       0.000       0.000       0.060
     912.50       0.044       0.000       0.000       0.000       0.000       0.000       0.044
     912.60       0.035       0.000       0.000       0.000       0.000       0.000       0.035
     913.00       0.000       0.000       0.000       0.000       0.000       0.000       0.000
     913.30       0.000       0.000       0.000       0.000       0.000       0.000       0.000
     913.50       0.000       0.000       0.000       0.000       0.000       0.000       0.000
     914.00       0.000       0.000       0.000       0.000       0.000       0.000       0.000
     914.50       0.000       0.000       0.000       0.000       0.000       0.000       0.000
     914.70       0.000       0.000       0.000       0.000       0.000       0.000       0.000
     915.00       0.000       0.000       0.000       0.000       0.000       0.000       0.000
     915.50       0.000       0.000       0.000       0.000       0.000       0.000       0.000
     915.60       0.000       0.000       0.000       0.000       0.000       0.000       0.000
     916.00       0.000       0.000       0.000       0.000       0.000       0.000       0.000
     916.50       0.000       0.000       0.000       0.000       0.000       0.000       0.000
     917.00       0.000       0.000       0.000       0.000       0.000       0.000       0.000
     917.20       0.000       0.000       0.000       0.000       0.000       0.000       0.000
     917.50       0.000       0.000       0.000       0.000       0.000       0.000       0.000
     918.00       0.000       0.000       0.000       0.000       0.000       0.000       0.000
     918.50       0.000       0.000       0.000       0.000       0.000       0.000       0.000
     918.90       0.000       0.000       0.000       0.000       0.000       0.000       0.000
     919.00       0.000       0.000       0.000       0.000       0.000       0.000       0.000
     919.50       0.000       0.000       0.000       0.000       0.000       0.000       0.000
     919.90       0.000       0.000       0.000       0.000       0.000       0.000       0.000
     920.00       0.000       0.000       0.000       0.000       0.000       0.000       0.000
     920.10       0.000       0.000       0.000       0.000       0.000       0.000       0.000
     920.40       0.000       0.000       0.000       0.000       0.000       0.000       0.000
     920.50       0.000       0.000       0.000       0.000       0.000       0.000       0.000
     920.96       0.000       0.000       0.000       0.000       0.000       0.000       0.000
     921.00       0.000       0.000       0.000       0.000       0.000       0.000       0.000
     921.50       0.000       0.000       0.000       0.000       0.000       0.000       0.000
     922.00       0.000       0.000       0.000       0.000       0.000       0.000       0.000
     922.50       0.000       0.000       0.000       0.000       0.000       0.000       0.000
     922.80       0.000       0.000       0.000       0.000       0.000       0.000       0.000
     923.00       0.000       0.000       0.000       0.000       0.000       0.000       0.000
     923.10       0.000       0.000       0.000       0.000       0.000       0.000       0.000
     923.15       0.000       0.000       0.000       0.000       0.000       0.000       0.000
     923.20       0.000       0.000       0.000       0.000       0.000       0.000       0.000
     923.50       0.000       0.000       0.000       0.000       0.000       0.000       0.000
     923.70       0.000       0.000       0.000       0.000       0.000       0.000       0.000
     924.00       0.000       0.000       0.000       0.000       0.000       0.000       0.000
     924.30       0.000       0.000       0.000       0.000       0.000       0.000       0.000
     924.50       0.000       0.000       0.000       0.000       0.000       0.000       0.000
     925.00       0.000       0.000       0.000       0.000       0.000       0.000       0.000
     925.50       0.000       0.000       0.000       0.000       0.000       0.000       0.000
     926.00       0.000       0.000       0.000       0.000       0.000       0.000       0.000
     926.20       0.000       0.000       0.000       0.000       0.000       0.000       0.000
     926.40       0.000       0.000       0.000       0.000       0.000       0.000       0.000
     926.50       0.000       0.000       0.000       0.000       0.000       0.000       0.000
     927.00       0.000       0.000       0.000       0.000       0.000       0.000       0.000
     927.60       0.000       0.000       0.000       0.000       0.000       0.000       0.000
     928.00       0.000       0.000       0.000       0.000       0.000       0.000       0.000
     928.10       0.000       0.000       0.000       0.000       0.000       0.000       0.000
     928.50       0.000       0.000       0.000       0.000       0.000       0.000       0.000
     929.00       0.000       0.000       0.000       0.000       0.000       0.000       0.000
     929.10       0.000       0.000       0.000       0.000       0.000       0.000       0.000
     930.00       0.000       0.000       0.000       0.000       0.000       0.000       0.000
     930.50       0.000       0.000       0.000       0.000       0.000       0.000       0.000
     930.60       0.000       0.000       0.000       0.000       0.000       0.000       0.000
     930.75       0.000       0.000       0.000       0.000       0.000       0.000       0.000
     931.00       0.000       0.000       0.000       0.000       0.000       0.000       0.000
     931.50       0.000       0.000       0.000       0.000       0.000       0.000       0.000
     931.90       0.000       0.000       0.000       0.000       0.000       0.000       0.000
     932.00       0.000       0.000       0.000       0.000       0.000       0.000       0.000
     932.40       0.000       0.000       0.000       0.000       0.000       0.000       0.000
     932.50       0.000       0.000       0.000       0.000       0.000       0.000       0.000
     933.00       0.000       0.000       0.000       0.000       0.000       0.000       0.000
     933.38       0.000       0.000       0.000       0.000       0.000       0.000       0.000
     933.50       0.000       0.000       0.000       0.000       0.000       0.000       0.000
     934.00       0.000       0.000       0.000       0.000       0.000       0.000       0.000
     934.50       0.000       0.000       0.000       0.000       0.000       0.000       0.000
     935.00       0.000       0.000       0.000       0.000       0.000       0.000       0.000
     935.30       0.000       0.000       0.000       0.000       0.000       0.000       0.000
     935.50       0.000       0.000       0.000       0.000       0.000       0.000       0.000
     935.60       0.000       0.000       0.000       0.000       0.000       0.000       0.000
     936.00       0.000       0.000       0.000       0.000       0.000       0.000       0.000
     936.50       0.000       0.000       0.000       0.000       0.000       0.000       0.000
     937.00       0.000       0.000       0.000       0.000       0.000       0.000       0.000
     937.50       0.000       0.000       0.000       0.000       0.000       0.000       0.000
     937.80       0.000       0.000       0.000       0.000       0.000       0.000       0.000
     937.90       0.000       0.000       0.000       0.000       0.000       0.000       0.000
     938.00       0.000       0.000       0.000       0.000       0.000       0.000       0.000
     938.50       0.000       0.000       0.000       0.000       0.000       0.000       0.000
     938.60       0.000       0.000       0.000       0.000       0.000       0.000       0.000
     939.00       0.000       0.000       0.000       0.000       0.000       0.000       0.000
     939.30       0.000       0.000       0.000       0.000       0.000       0.000       0.000
     939.50       0.000       0.000       0.000       0.000       0.000       0.000       0.000
     940.00       0.000       0.000       0.000       0.000       0.000       0.000       0.000
     940.10       0.000       0.000       0.000       0.000       0.000       0.000       0.000
     940.50       0.000       0.000       0.000       0.000       0.000       0.000       0.000
     941.00       0.000       0.000       0.000       0.000       0.000       0.000       0.000
     941.50       0.000       0.000       0.000       0.000       0.000       0.000       0.000
     942.00       0.000       0.000       0.000       0.000       0.000       0.000       0.000
     942.40       0.000       0.000       0.000       0.000       0.000       0.000       0.000
     942.50       0.000       0.000       0.000       0.000       0.000       0.000       0.000
     943.00       0.000       0.000       0.000       0.000       0.000       0.000       0.000
     943.30       0.000       0.000       0.000       0.000       0.000       0.000       0.000
     943.50       0.000       0.000       0.000       0.000       0.000       0.000       0.000
     944.00       0.000       0.000       0.000       0.000       0.000       0.000       0.000
     944.50       0.000       0.000       0.000       0.000       0.000       0.000       0.000
     944.52       0.000       0.000       0.000       0.000       0.000       0.000       0.000
     944.60       0.000       0.000       0.000       0.000       0.000       0.000       0.000
     945.00       0.000       0.000       0.000       0.000       0.000       0.000       0.000
     946.00       0.000       0.000       0.000       0.000       0.000       0.000       0.000
     947.00       0.000       0.000       0.000       0.000       0.000       0.000       0.000
     947.70       0.000       0.000       0.000       0.000       0.000       0.000       0.000
     948.00       0.000       0.000       0.000       0.000       0.000       0.000       0.000
     948.50       0.000       0.000       0.000       0.000       0.000       0.000       0.000
     949.00       0.000       0.000       0.000       0.000       0.000       0.000       0.000
     949.10       0.000       0.000       0.000       0.000       0.000       0.000       0.000
     949.50       0.000       0.000       0.000       0.000       0.000       0.000       0.000
     949.74       0.000       0.000       0.000       0.000       0.000       0.000       0.000
     950.00       0.000       0.000       0.000       0.000       0.000       0.000       0.000
     950.30       0.000       0.000       0.000       0.000       0.000       0.000       0.000
     950.50       0.000       0.000       0.000       0.000       0.000       0.000       0.000
     951.00       0.000       0.000       0.000       0.000       0.000       0.000       0.000
     952.00       0.000       0.000       0.000       0.000       0.000       0.000       0.000
     953.00       0.000       0.000       0.000       0.000       0.000       0.000       0.000
     954.00       0.000       0.000       0.000       0.000       0.000       0.000       0.000
     955.00       0.000       0.000       0.000       0.000       0.000       0.000       0.000
     955.90       0.000       0.000       0.000       0.000       0.000       0.000       0.000
     956.00       0.000       0.000       0.000       0.000       0.000       0.000       0.000
     956.50       0.000       0.000       0.000       0.000       0.000       0.000       0.000
     956.70       0.000       0.000       0.000       0.000       0.000       0.000       0.000
     957.00       0.000       0.000       0.000       0.000       0.000       0.000       0.000
     957.50       0.000       0.000       0.000       0.000       0.000       0.000       0.000
     958.00       0.000       0.000       0.000       0.000       0.000       0.000       0.000
     958.20       0.000       0.000       0.000       0.000       0.000       0.000       0.000
     958.50       0.000       0.000       0.000       0.000       0.000       0.000       0.000
     958.80       0.000       0.000       0.000       0.000       0.000       0.000       0.000
     959.00       0.000       0.000       0.000       0.000       0.000       0.000       0.000
     959.50       0.000       0.000       0.000       0.000       0.000       0.000       0.000
     960.00       0.000       0.000       0.000       0.000       0.000       0.000       0.000
     960.50       0.000       0.000       0.000       0.000       0.000       0.000       0.000
     961.00       0.000       0.000       0.000       0.000       0.000       0.000       0.000
     961.50       0.000       0.000       0.000       0.000       0.000       0.000       0.000
     961.90       0.000       0.000       0.000       0.000       0.000       0.000       0.000
     962.00       0.000       0.000       0.000       0.000       0.000       0.000       0.000
     962.50       0.000       0.000       0.000       0.000       0.000       0.000       0.000
     962.80       0.000       0.000       0.000       0.000       0.000       0.000       0.000
     963.00       0.000       0.000       0.000       0.000       0.000       0.000       0.000
     964.00       0.000       0.000       0.000       0.000       0.000       0.000       0.000
     965.00       0.000       0.000       0.000       0.000       0.000       0.000       0.000
     965.50       0.000       0.000       0.000       0.000       0.000       0.000       0.000
     965.60       0.000       0.000       0.000       0.000       0.000       0.000       0.000
     966.00       0.000       0.000       0.000       0.000       0.000       0.000       0.000
     966.50       0.000       0.000       0.000       0.000       0.000       0.000       0.000
     967.00       0.000       0.000       0.000       0.000       0.000       0.000       0.000
     967.50       0.000       0.000       0.000       0.000       0.000       0.000       0.000
     968.00       0.000       0.000       0.000       0.000       0.000       0.000       0.000
     969.00       0.000       0.000       0.000       0.000       0.000       0.000       0.000
     969.50       0.000       0.000       0.000       0.000       0.000       0.000       0.000
     970.00       0.000       0.000       0.000       0.000       0.000       0.000       0.000
     970.40       0.000       0.000       0.000       0.000       0.000       0.000       0.000
     970.50       0.000       0.000       0.000       0.000       0.000       0.000       0.000
     971.00       0.000       0.000       0.000       0.000       0.000       0.000       0.000
     971.50       0.000       0.000       0.000       0.000       0.000       0.000       0.000
     972.00       0.000       0.000       0.000       0.000       0.000       0.000       0.000
     972.50       0.000       0.000       0.000       0.000       0.000       0.000       0.000
     972.54       0.000       0.000       0.000       0.000       0.000       0.000       0.000
     972.90       0.000       0.000       0.000       0.000       0.000       0.000       0.000
     973.00       0.000       0.000       0.000       0.000       0.000       0.000       0.000
     973.50       0.000       0.000       0.000       0.000       0.000       0.000       0.000
     974.00       0.000       0.000       0.000       0.000       0.000       0.000       0.000
     974.50       0.000       0.000       0.000       0.000       0.000       0.000       0.000
     975.00       0.000       0.000       0.000       0.000       0.000       0.000       0.000
     975.30       0.000       0.000       0.000       0.000       0.000       0.000       0.000
     975.50       0.000       0.000       0.000       0.000       0.000       0.000       0.000
     976.00       0.000       0.000       0.000       0.000       0.000       0.000       0.000
     976.50       0.000       0.000       0.000       0.000       0.000       0.000       0.000
     977.00       0.000       0.000       0.000       0.000       0.000       0.000       0.000
     977.02       0.000       0.000       0.000       0.000       0.000       0.000       0.000
     977.50       0.000       0.000       0.000       0.000       0.000       0.000       0.000
     978.00       0.000       0.000       0.000       0.000       0.000       0.000       0.000
     978.50       0.000       0.000       0.000       0.000       0.000       0.000       0.000
     979.00       0.000       0.000       0.000       0.000       0.000       0.000       0.000
     979.10       0.000       0.000       0.000       0.000       0.000       0.000       0.000
     979.50       0.000       0.000       0.000       0.000       0.000       0.000       0.000
     980.00       0.000       0.000       0.000       0.000       0.000       0.000       0.000
     980.50       0.000       0.000       0.000       0.000       0.000       0.000       0.000
     981.00       0.000       0.000       0.000       0.000       0.000       0.000       0.000
     981.50       0.000       0.000       0.000       0.000       0.000       0.000       0.000
     982.00       0.000       0.000       0.000       0.000       0.000       0.000       0.000
     982.50       0.000       0.000       0.000       0.000       0.000       0.000       0.000
     983.00       0.000       0.000       0.000       0.000       0.000       0.000       0.000
     983.30       0.000       0.000       0.000       0.000       0.000       0.000       0.000
     983.50       0.000       0.000       0.000       0.000       0.000       0.000       0.000
     984.00       0.000       0.000       0.000       0.000       0.000       0.000       0.000
     984.50       0.000       0.000       0.000       0.000       0.000       0.000       0.000
     985.00       0.000       0.000       0.000       0.000       0.000       0.000       0.000
     985.20       0.000       0.000       0.000       0.000       0.000       0.000       0.000
     985.50       0.000       0.000       0.000       0.000       0.000       0.000       0.000
     985.90       0.000       0.000       0.000       0.000       0.000       0.000       0.000
     986.00       0.000       0.000       0.000       0.000       0.000       0.000       0.000
     986.30       0.000       0.000       0.000       0.000       0.000       0.000       0.000
     987.00       0.000       0.000       0.000       0.000       0.000       0.000       0.000
     988.00       0.000       0.000       0.000       0.000       0.000       0.000       0.000
     988.50       0.000       0.000       0.000       0.000       0.000       0.000       0.000
     989.00       0.000       0.000       0.000       0.000       0.000       0.000       0.000
     989.60       0.000       0.000       0.000       0.000       0.000       0.000       0.000
     989.79       0.000       0.000       0.000       0.000       0.000       0.000       0.000
     989.80       0.000       0.000       0.000       0.000       0.000       0.000       0.000
     990.00       0.000       0.000       0.000       0.000       0.000       0.000       0.000
     991.00       0.000       0.000       0.000       0.000       0.000       0.000       0.000
     991.50       0.000       0.000       0.000       0.000       0.000       0.000       0.000
     991.55       0.000       0.000       0.000       0.000       0.000       0.000       0.000
     992.00       0.000       0.000       0.000       0.000       0.000       0.000       0.000
     992.90       0.000       0.000       0.000       0.000       0.000       0.000       0.000
     993.00       0.000       0.000       0.000       0.000       0.000       0.000       0.000
     993.20       0.000       0.000       0.000       0.000       0.000       0.000       0.000
     993.50       0.000       0.000       0.000       0.000       0.000       0.000       0.000
     994.00       0.000       0.000       0.000       0.000       0.000       0.000       0.000
     995.00       0.000       0.000       0.000       0.000       0.000       0.000       0.000
     996.00       0.000       0.000       0.000       0.000       0.000       0.000       0.000
     997.00       0.000       0.000       0.000       0.000       0.000       0.000       0.000
     997.20       0.000       0.000       0.000       0.000       0.000       0.000       0.000
     998.00       0.000       0.000       0.000       0.000       0.000       0.000       0.000
     999.00       0.000       0.000       0.000       0.000       0.000       0.000       0.000
    1000.00       0.000       0.000       0.000       0.000       0.000       0.000       0.000
    1001.00       0.000       0.000       0.000       0.000       0.000       0.000       0.000
    1002.00       0.000       0.000       0.000       0.000       0.000       0.000       0.000
    1003.00       0.000       0.000       0.000       0.000       0.000       0.000       0.000
    1004.00       0.000       0.000       0.000       0.000       0.000       0.000       0.000
    1004.30       0.000       0.000       0.000       0.000       0.000       0.000       0.000
    1004.60       0.000       0.000       0.000       0.000       0.000       0.000       0.000
    1005.00       0.000       0.000       0.000       0.000       0.000       0.000       0.000
    1006.00       0.000       0.000       0.000       0.000       0.000       0.000       0.000
    1006.80       0.000       0.000       0.000       0.000       0.000       0.000       0.000
    1007.00       0.000       0.000       0.000       0.000       0.000       0.000       0.000
    1007.90       0.000       0.000       0.000       0.000       0.000       0.000       0.000
    1008.00       0.000       0.000       0.000       0.000       0.000       0.000       0.000
    1009.00       0.000       0.000       0.000       0.000       0.000       0.000       0.000
    1009.10       0.000       0.000       0.000       0.000       0.000       0.000       0.000
    1009.40       0.000       0.000       0.000       0.000       0.000       0.000       0.000
    1010.00       0.000       0.000       0.000       0.000       0.000       0.000       0.000
    1010.20       0.000       0.000       0.000       0.000       0.000       0.000       0.000
    1011.00       0.000       0.000       0.000       0.000       0.000       0.000       0.000
    1011.40       0.000       0.000       0.000       0.000       0.000       0.000       0.000
    1012.00       0.000       0.000       0.000       0.000       0.000       0.000       0.000
    1012.30       0.000       0.000       0.000       0.000       0.000       0.000       0.000
    1013.00       0.000       0.000       0.000       0.000       0.000       0.000       0.000
    1013.50       0.000       0.000       0.000       0.000       0.000       0.000       0.000
    1013.90       0.000       0.000       0.000       0.000       0.000       0.000       0.000
    1014.00       0.000       0.000       0.000       0.000       0.000       0.000       0.000
    1015.00       0.000       0.000       0.000       0.000       0.000       0.000       0.000
    1015.80       0.000       0.000       0.000       0.000       0.000       0.000       0.000
    1016.00       0.000       0.000       0.000       0.000       0.000       0.000       0.000
    1016.40       0.000       0.000       0.000       0.000       0.000       0.000       0.000
    1016.90       0.000       0.000       0.000       0.000       0.000       0.000       0.000
    1017.00       0.000       0.000       0.000       0.000       0.000       0.000       0.000
    1017.20       0.000       0.000       0.000       0.000       0.000       0.000       0.000
    1017.80       0.000       0.000       0.000       0.000       0.000       0.000       0.000
    1018.00       0.000       0.000       0.000       0.000       0.000       0.000       0.000
    1018.30       0.000       0.000       0.000       0.000       0.000       0.000       0.000
    1018.80       0.000       0.000       0.000       0.000       0.000       0.000       0.000
    1019.00       0.000       0.000       0.000       0.000       0.000       0.000       0.000
    1019.40       0.000       0.000       0.000       0.000       0.000       0.000       0.000
    1020.00       0.000       0.000       0.000       0.000       0.000       0.000       0.000
    1020.40       0.000       0.000       0.000       0.000       0.000       0.000       0.000
    1020.80       0.000       0.000       0.000       0.000       0.000       0.000       0.000
    1021.00       0.000       0.000       0.000       0.000       0.000       0.000       0.000
    1021.10       0.000       0.000       0.000       0.000       0.000       0.000       0.000
    1021.60       0.000       0.000       0.000       0.000       0.000       0.000       0.000
    1022.00       0.000       0.000       0.000       0.000       0.000       0.000       0.000
    1022.40       0.000       0.000       0.000       0.000       0.000       0.000       0.000
    1023.00       0.000       0.000       0.000       0.000       0.000       0.000       0.000
    1023.40       0.000       0.000       0.000       0.000       0.000       0.000       0.000
    1024.00       0.000       0.000       0.000       0.000       0.000       0.000       0.000
    1024.60       0.000       0.000       0.000       0.000       0.000       0.000       0.000
    1025.00       0.000       0.000       0.000       0.000       0.000       0.000       0.000
    1025.30       0.000       0.000       0.000       0.000       0.000       0.000       0.000
    1025.70       0.000       0.000       0.000       0.000       0.000       0.000       0.000
    1025.72       0.000       0.000       0.000       0.000       0.000       0.000       0.000
    1026.00       0.000       0.000       0.000       0.000       0.000       0.000       0.000
    1027.00       0.000       0.000       0.000       0.000       0.000       0.000       0.000
